title:Data                                                                         , recorded:02.10.18 09.08.39, sampling:128, subject:David                                                                           , labels:COUNTER INTERPOLATED AF3 F7 F3 FC5 T7 P7 O1 O2 P8 T8 FC6 F4 F8 AF4 RAW_CQ GYROX GYROY MARKER SYNC TIME_STAMP_s TIME_STAMP_ms CQ_AF3 CQ_F7 CQ_F3 CQ_FC5 CQ_T7 CQ_P7 CQ_O1 CQ_O2 CQ_P8 CQ_T8 CQ_FC6 CQ_F4 CQ_F8 CQ_AF4 CQ_CMS CQ_DRL, chan:39, units:emotiv,,,,,,,,,,,,,,,,,,,,,,,,,,,,,,,,
12,0,4166.153809,4174.871582,4009.230713,4138.461426,4175.384277,4168.205078,4039.487061,4056.923096,3953.333252,4168.717773,3957.94873,4288.205078,4169.743652,4175.384277,856,2693,2021,0,0,1992,774,0,0,0,0,0,0,0,0,0,0,0,0,4,0,0,0
13,0,4171.794922,4174.358887,4027.179443,4140,4171.794922,4169.230469,4065.640869,4089.230713,3969.743408,4170.256348,3958.974365,4317.94873,4169.230469,4174.358887,520,2693,2027,0,0,1992,782,0,0,0,0,0,0,0,0,0,0,0,0,4,4,0,0
14,0,4173.333008,4174.358887,4051.794678,4154.871582,4174.871582,4170.256348,4084.102539,4137.436035,3996.410156,4170.769043,4009.230713,4357.435547,4169.743652,4175.384277,0,2689,2030,0,0,1992,791,0,0,0,0,0,0,0,0,0,0,0,0,4,4,0,0
15,0,4172.820313,4174.871582,4053.333252,4150.256348,4176.922852,4171.281738,4084.102539,4144.102539,4008.205078,4170.256348,4029.230713,4375.384277,4170.256348,4176.922852,0,2681,2033,0,0,1992,799,0,0,0,0,0,0,0,0,0,0,0,0,4,4,0,0
16,0,4171.794922,4174.358887,4058.974365,4153.846191,4170.256348,4169.743652,4095.384521,4130.256348,4030.256348,4170.769043,4015.384521,4387.179199,4169.743652,4173.333008,0,2667,2033,0,0,1992,807,0,0,0,0,0,0,0,0,0,0,0,0,4,4,0,0
17,0,4167.692383,4175.384277,4049.230713,4149.230469,4168.717773,4168.205078,4097.436035,4115.384277,4029.230713,4169.743652,4001.53833,4392.820313,4169.743652,4169.743652,0,2658,2032,0,0,1992,815,0,0,0,0,0,0,0,0,0,0,0,0,4,4,0,0
18,0,4164.615234,4173.846191,4029.743408,4125.641113,4173.333008,4169.743652,4083.5896,4098.974121,4008.717773,4173.333008,4005.128174,4392.307617,4170.256348,4170.256348,0,2633,2028,0,0,1992,822,0,0,0,0,0,0,0,0,0,0,0,0,4,4,0,0
19,0,4166.153809,4172.307617,4053.845947,4134.871582,4174.871582,4170.769043,4098.974121,4101.025391,4031.794678,4175.384277,4041.025635,4412.820313,4170.256348,4172.307617,0,2618,2025,0,0,1992,829,0,0,0,0,0,0,0,0,0,0,0,0,4,4,0,0
20,0,4166.153809,4176.922852,4084.615234,4155.897461,4173.333008,4169.230469,4124.615234,4110.769043,4058.461426,4171.794922,4065.128174,4435.897461,4170.769043,4172.307617,0,2589,2018,0,0,1992,837,0,0,0,0,0,0,0,0,0,0,0,0,4,4,0,0
21,0,4162.563965,4179.487305,4073.333252,4142.05127,4175.897461,4168.205078,4128.205078,4110.769043,4051.794678,4171.794922,4048.205078,4430.769043,4169.230469,4170.256348,0,2573,2015,0,0,1992,845,0,0,0,0,0,0,0,0,0,0,0,0,4,4,0,0
22,0,4165.12793,4174.871582,4065.128174,4127.179199,4176.922852,4169.230469,4134.871582,4114.871582,4057.94873,4173.846191,4042.05127,4423.589844,4169.230469,4170.256348,0,2534,2010,0,0,1992,852,0,0,0,0,0,0,0,0,0,0,0,0,4,4,0,0
23,0,4170.256348,4173.846191,4093.333252,4137.436035,4175.897461,4168.717773,4159.487305,4127.692383,4075.384521,4172.307617,4073.845947,4444.102539,4170.256348,4170.769043,0,2514,2008,0,0,1992,860,0,0,0,0,0,0,0,0,0,0,0,0,4,4,0,0
24,0,4168.717773,4177.94873,4121.025391,4152.820313,4176.922852,4168.205078,4178.974121,4141.025391,4090.769043,4169.743652,4104.615234,4464.615234,4170.256348,4172.820313,0,2469,2008,0,0,1992,869,0,0,0,0,0,0,0,0,0,0,0,0,4,4,0,0
25,0,4164.615234,4176.410156,4124.615234,4157.436035,4176.922852,4169.230469,4182.05127,4142.05127,4114.358887,4170.256348,4112.307617,4466.666504,4169.230469,4170.769043,0,2444,2007,0,0,1992,877,0,0,0,0,0,0,0,0,0,0,0,0,4,4,0,0
26,0,4165.12793,4176.410156,4124.102539,4152.820313,4174.871582,4169.743652,4185.641113,4135.897461,4128.205078,4171.281738,4112.820313,4471.281738,4169.230469,4170.256348,0,2418,2006,0,0,1992,885,0,0,0,0,0,0,0,0,0,0,0,0,4,4,0,0
27,0,4165.641113,4177.94873,4136.922852,4157.436035,4173.846191,4168.717773,4200,4133.846191,4123.589844,4171.281738,4127.692383,4476.922852,4170.769043,4175.384277,0,2367,2004,0,0,1992,893,0,0,0,0,0,0,0,0,0,0,0,0,4,4,0,0
28,0,4163.589844,4175.384277,4157.436035,4174.871582,4174.871582,4169.743652,4218.974121,4135.897461,4129.743652,4173.846191,4161.025391,4477.94873,4171.281738,4176.922852,0,2340,2004,0,0,1992,901,0,0,0,0,0,0,0,0,0,0,0,0,4,4,0,0
29,0,4164.615234,4173.846191,4169.230469,4176.922852,4175.384277,4170.256348,4232.307617,4142.563965,4154.871582,4173.333008,4173.846191,4482.563965,4170.769043,4175.384277,0,2284,1998,0,0,1992,909,0,0,0,0,0,0,0,0,0,0,0,0,4,4,0,0
30,0,4167.692383,4177.436035,4174.358887,4166.666504,4172.820313,4170.769043,4240,4151.794922,4168.205078,4170.769043,4165.12793,4484.615234,4171.281738,4174.871582,0,2254,1993,0,0,1992,917,0,0,0,0,0,0,0,0,0,0,0,0,4,4,0,0
31,0,4168.205078,4178.461426,4188.717773,4178.974121,4175.897461,4173.846191,4252.820313,4158.461426,4169.230469,4171.281738,4177.94873,4483.589844,4170.769043,4176.922852,0,2195,1984,0,0,1992,924,0,0,0,0,0,0,0,0,0,0,0,0,4,4,0,0
32,0,4169.230469,4175.897461,4217.436035,4206.666504,4176.410156,4173.846191,4274.871582,4173.333008,4187.179199,4172.820313,4213.333008,4489.230469,4169.230469,4174.358887,0,2166,1981,0,0,1992,932,0,0,0,0,0,0,0,0,0,0,0,0,4,4,0,0
33,0,4170.769043,4175.384277,4240,4217.436035,4177.436035,4170.256348,4297.94873,4187.692383,4215.897461,4171.794922,4239.487305,4497.94873,4169.743652,4173.846191,0,2102,1975,0,0,1992,941,0,0,0,0,0,0,0,0,0,0,0,0,4,4,0,0
34,0,4172.820313,4174.358887,4254.871582,4222.05127,4178.974121,4169.230469,4317.436035,4186.666504,4227.179199,4170.769043,4252.820313,4502.563965,4169.743652,4176.922852,0,2070,1973,0,0,1992,949,0,0,0,0,0,0,0,0,0,0,0,0,4,4,0,0
35,0,4172.307617,4170.769043,4269.743652,4236.410156,4175.897461,4170.769043,4336.410156,4184.615234,4231.794922,4171.794922,4272.820313,4503.07666,4169.230469,4173.846191,0,2002,1969,0,0,1992,956,0,0,0,0,0,0,0,0,0,0,0,0,4,4,0,0
36,0,4171.794922,4171.281738,4272.820313,4238.974121,4175.897461,4170.769043,4353.846191,4189.230469,4244.102539,4172.820313,4287.692383,4497.94873,4170.769043,4169.230469,0,1968,1969,0,0,1992,964,0,0,0,0,0,0,0,0,0,0,0,0,4,4,0,0
37,0,4173.333008,4174.871582,4266.153809,4231.281738,4178.974121,4168.717773,4376.410156,4189.743652,4251.794922,4172.820313,4274.358887,4487.692383,4171.794922,4170.769043,0,1934,1969,0,0,1992,971,0,0,0,0,0,0,0,0,0,0,0,0,4,4,0,0
38,0,4175.384277,4175.897461,4264.615234,4232.307617,4178.461426,4169.230469,4393.333008,4189.230469,4255.897461,4172.820313,4254.871582,4477.94873,4170.256348,4172.307617,0,1869,1967,0,0,1992,979,0,0,0,0,0,0,0,0,0,0,0,0,4,4,0,0
39,0,4173.333008,4174.358887,4248.717773,4224.615234,4170.769043,4169.230469,4369.230469,4178.461426,4239.487305,4172.307617,4238.974121,4457.435547,4170.256348,4170.769043,0,1837,1966,0,0,1992,987,0,0,0,0,0,0,0,0,0,0,0,0,4,4,0,0
40,0,4172.307617,4177.94873,4230.769043,4214.871582,4171.281738,4168.717773,4333.333008,4165.641113,4220.512695,4173.333008,4232.307617,4440,4171.281738,4170.769043,0,1777,1963,0,0,1992,995,0,0,0,0,0,0,0,0,0,0,0,0,4,4,0,0
41,0,4173.846191,4174.871582,4236.922852,4215.897461,4171.794922,4169.743652,4322.563965,4168.717773,4233.333008,4173.333008,4241.538574,4436.410156,4171.281738,4173.846191,0,1747,1961,0,0,1993,3,0,0,0,0,0,0,0,0,0,0,0,0,4,4,0,0
42,0,4174.871582,4169.743652,4242.563965,4217.436035,4169.743652,4171.794922,4311.281738,4176.410156,4252.307617,4171.281738,4243.589844,4430.769043,4169.743652,4175.897461,0,1686,1962,0,0,1993,11,0,0,0,0,0,0,0,0,0,0,0,0,4,4,0,0
43,0,4173.846191,4171.281738,4242.05127,4233.333008,4169.230469,4170.769043,4294.358887,4170.256348,4251.281738,4169.230469,4240.512695,4421.025391,4169.230469,4174.871582,0,1655,1964,0,0,1993,19,0,0,0,0,0,0,0,0,0,0,0,0,4,4,0,0
44,0,4173.333008,4173.333008,4235.897461,4244.102539,4169.743652,4168.717773,4285.12793,4156.922852,4238.461426,4171.281738,4244.102539,4408.717773,4169.230469,4173.333008,0,1593,1968,0,0,1993,27,0,0,0,0,0,0,0,0,0,0,0,0,4,4,0,0
45,0,4174.871582,4169.230469,4207.692383,4221.538574,4169.743652,4168.717773,4272.307617,4153.333008,4226.666504,4173.846191,4227.179199,4380,4170.256348,4173.846191,0,1561,1970,0,0,1993,34,0,0,0,0,0,0,0,0,0,0,0,0,4,4,0,0
46,0,4173.333008,4169.230469,4176.922852,4201.025391,4168.717773,4169.743652,4253.846191,4159.487305,4213.333008,4171.281738,4180,4347.692383,4171.794922,4173.846191,0,1504,1979,0,0,1993,42,0,0,0,0,0,0,0,0,0,0,0,0,4,4,0,0
47,0,4172.820313,4170.769043,4164.102539,4197.94873,4171.281738,4170.769043,4240,4155.897461,4194.871582,4169.743652,4153.333008,4329.230469,4169.743652,4171.794922,0,1477,1982,0,0,1993,50,0,0,0,0,0,0,0,0,0,0,0,0,4,4,0,0
48,0,4174.358887,4169.230469,4153.846191,4187.692383,4170.769043,4171.794922,4230.769043,4137.436035,4178.974121,4170.256348,4148.717773,4318.974121,4169.230469,4173.846191,0,1435,1988,0,0,1993,58,0,0,0,0,0,0,0,0,0,0,0,0,4,4,0,0
49,0,4174.358887,4169.743652,4142.563965,4183.07666,4169.230469,4170.256348,4228.205078,4130.256348,4177.436035,4167.692383,4142.05127,4304.615234,4173.846191,4173.846191,0,1405,1989,0,0,1993,66,0,0,0,0,0,0,0,0,0,0,0,0,4,4,0,0
50,0,4173.333008,4170.769043,4135.897461,4189.743652,4167.692383,4168.717773,4218.461426,4125.12793,4175.384277,4173.846191,4129.743652,4286.153809,4173.333008,4172.820313,0,1386,1987,0,0,1993,75,0,0,0,0,0,0,0,0,0,0,0,0,4,4,0,0
51,0,4175.897461,4169.743652,4134.358887,4198.974121,4167.692383,4168.205078,4206.666504,4107.179199,4162.05127,4181.538574,4118.974121,4275.384277,4169.230469,4174.358887,0,1351,1987,0,0,1993,83,0,0,0,0,0,0,0,0,0,0,0,0,4,4,0,0
52,0,4177.436035,4168.717773,4158.461426,4215.384277,4168.717773,4170.256348,4217.94873,4106.153809,4172.307617,4173.333008,4153.846191,4289.230469,4170.256348,4173.846191,0,1338,1984,0,0,1993,91,0,0,0,0,0,0,0,0,0,0,0,0,4,4,0,0
53,0,4174.358887,4169.743652,4182.563965,4222.563965,4168.717773,4171.794922,4231.794922,4114.358887,4190.256348,4164.615234,4197.436035,4300,4172.307617,4174.358887,0,1312,1982,0,0,1993,98,0,0,0,0,0,0,0,0,0,0,0,0,4,4,0,0
54,0,4173.846191,4167.692383,4178.974121,4224.615234,4167.692383,4171.281738,4238.461426,4101.025391,4183.589844,4171.281738,4194.871582,4285.12793,4170.769043,4174.871582,0,1303,1983,0,0,1993,106,0,0,0,0,0,0,0,0,0,0,0,0,4,4,0,0
55,0,4174.871582,4165.641113,4189.743652,4242.563965,4166.153809,4169.743652,4251.281738,4093.845947,4188.205078,4173.846191,4198.974121,4284.615234,4170.256348,4174.358887,0,1291,1977,0,0,1993,114,0,0,0,0,0,0,0,0,0,0,0,0,4,4,0,0
56,0,4175.384277,4166.666504,4207.692383,4249.230469,4166.666504,4169.230469,4249.743652,4096.410156,4201.025391,4169.743652,4224.615234,4292.307617,4171.281738,4172.307617,0,1287,1973,0,0,1993,122,0,0,0,0,0,0,0,0,0,0,0,0,4,4,0,0
57,0,4176.922852,4168.717773,4210.256348,4251.794922,4167.692383,4169.230469,4247.179199,4091.794678,4197.94873,4171.281738,4231.281738,4281.025391,4171.794922,4173.333008,0,1285,1961,0,0,1993,131,0,0,0,0,0,0,0,0,0,0,0,0,4,4,0,0
58,0,4178.461426,4169.743652,4227.179199,4280,4168.205078,4169.230469,4270.769043,4102.05127,4206.666504,4172.307617,4232.820313,4281.025391,4170.769043,4174.358887,0,1288,1956,0,0,1993,139,0,0,0,0,0,0,0,0,0,0,0,0,4,4,0,0
59,0,4175.897461,4165.641113,4227.179199,4272.820313,4168.205078,4168.717773,4262.05127,4102.05127,4200.512695,4169.743652,4232.307617,4281.025391,4168.717773,4173.333008,0,1301,1939,0,0,1993,146,0,0,0,0,0,0,0,0,0,0,0,0,4,4,0,0
60,0,4175.384277,4163.07666,4208.717773,4245.641113,4167.692383,4169.230469,4230.769043,4078.974365,4169.743652,4172.307617,4236.922852,4266.153809,4169.230469,4170.769043,0,1311,1929,0,0,1993,154,0,0,0,0,0,0,0,0,0,0,0,0,4,4,0,0
61,0,4176.922852,4165.641113,4238.974121,4285.12793,4167.692383,4168.717773,4254.871582,4092.307617,4191.794922,4177.94873,4281.025391,4275.897461,4169.743652,4170.256348,0,1324,1920,0,0,1993,162,0,0,0,0,0,0,0,0,0,0,0,0,4,4,0,0
62,0,4175.384277,4169.743652,4257.436035,4311.281738,4167.692383,4169.743652,4273.846191,4108.717773,4214.358887,4175.384277,4282.563965,4278.974121,4169.230469,4168.205078,0,1355,1901,0,0,1993,169,0,0,0,0,0,0,0,0,0,0,0,0,4,4,0,0
63,0,4174.871582,4166.153809,4215.897461,4267.179199,4166.153809,4170.769043,4234.871582,4079.487061,4174.358887,4169.743652,4233.846191,4244.615234,4169.743652,4166.666504,0,1375,1893,0,0,1993,176,0,0,0,0,0,0,0,0,0,0,0,0,4,4,0,0
64,0,4177.94873,4163.07666,4227.692383,4269.743652,4166.666504,4171.281738,4228.717773,4078.461426,4176.410156,4171.281738,4262.563965,4244.615234,4170.256348,4167.692383,830,1415,1879,0,0,1993,184,4,0,0,0,0,0,0,0,0,0,0,0,4,4,0,0
65,0,4177.436035,4163.07666,4280,4323.07666,4167.692383,4169.230469,4267.179199,4114.871582,4226.153809,4173.333008,4322.563965,4270.769043,4169.230469,4168.717773,678,1437,1875,0,0,1993,191,4,4,0,0,0,0,0,0,0,0,0,0,4,4,0,0
66,0,4175.897461,4162.563965,4258.974121,4320,4166.666504,4170.256348,4269.230469,4107.179199,4215.384277,4171.794922,4288.717773,4248.205078,4168.717773,4165.12793,0,1487,1867,0,0,1993,199,4,4,0,0,0,0,0,0,0,0,0,0,4,4,0,0
67,0,4177.436035,4164.615234,4227.692383,4293.846191,4167.692383,4173.333008,4256.410156,4089.230713,4188.205078,4171.794922,4243.589844,4215.897461,4170.769043,4164.102539,0,1516,1864,0,0,1993,207,4,4,0,0,0,0,0,0,0,0,0,0,4,4,0,0
68,0,4179.487305,4168.717773,4225.12793,4282.563965,4169.743652,4173.846191,4251.281738,4092.820313,4184.615234,4171.794922,4243.07666,4203.07666,4171.281738,4167.179199,0,1573,1857,0,0,1993,216,4,4,0,0,0,0,0,0,0,0,0,0,4,4,0,0
69,0,4178.461426,4168.205078,4188.717773,4253.846191,4168.717773,4173.333008,4223.07666,4077.94873,4153.333008,4170.769043,4210.769043,4167.692383,4168.717773,4169.230469,0,1606,1853,0,0,1993,224,4,4,0,0,0,0,0,0,0,0,0,0,4,4,0,0
70,0,4177.94873,4166.666504,4172.307617,4251.794922,4167.179199,4173.333008,4211.794922,4069.230713,4145.641113,4171.281738,4196.410156,4146.666504,4168.717773,4168.717773,527,1675,1845,0,0,1993,232,4,4,0,0,0,0,4,0,0,0,0,0,4,4,0,0
71,0,4176.922852,4169.743652,4202.05127,4281.538574,4169.743652,4173.333008,4228.205078,4093.333252,4182.563965,4171.281738,4231.794922,4156.410156,4169.230469,4167.179199,484,1712,1842,0,0,1993,240,4,4,0,0,0,0,4,4,0,0,0,0,4,4,0,0
72,0,4175.897461,4167.179199,4195.897461,4271.794922,4170.769043,4174.358887,4219.487305,4098.974121,4180,4171.281738,4215.384277,4141.538574,4168.205078,4166.153809,771,1783,1836,0,0,1993,248,4,4,0,0,0,0,4,4,4,0,0,0,4,4,0,0
73,0,4176.922852,4162.563965,4153.333008,4230.256348,4169.230469,4173.846191,4196.922852,4064.615234,4134.358887,4171.281738,4155.384277,4104.102539,4169.230469,4165.12793,0,1833,1834,0,0,1993,256,4,4,0,0,0,0,4,4,4,0,0,0,4,4,0,0
74,0,4179.487305,4167.692383,4129.743652,4217.94873,4168.717773,4170.256348,4193.333008,4036.923096,4097.94873,4171.281738,4127.179199,4081.025635,4171.794922,4164.615234,0,1878,1833,0,0,1993,264,4,4,0,0,0,0,4,4,4,0,0,0,4,4,0,0
75,0,4180,4170.769043,4118.974121,4220,4169.743652,4173.333008,4191.281738,4033.845947,4080.512695,4170.769043,4110.256348,4068.205078,4170.256348,4164.615234,0,1973,1837,0,0,1993,271,4,4,0,0,0,0,4,4,4,0,0,0,4,4,0,0
76,0,4177.94873,4168.205078,4102.05127,4207.692383,4169.743652,4176.922852,4185.641113,4035.897217,4074.871582,4170.769043,4089.230713,4052.307617,4168.717773,4165.12793,859,2027,1840,0,0,1993,280,4,4,0,0,0,0,4,4,4,0,0,0,4,4,0,0
77,0,4176.410156,4167.692383,4072.820313,4185.641113,4170.256348,4174.871582,4181.025391,4035.384521,4064.102539,4170.769043,4063.5896,4027.692139,4170.769043,4168.717773,520,2144,1847,0,0,1993,288,4,4,0,0,0,0,4,4,4,0,0,0,4,4,0,0
78,0,4176.922852,4170.256348,4018.974365,4149.743652,4170.769043,4171.794922,4156.922852,4030.256348,4017.94873,4170.769043,4008.717773,3988.205078,4170.769043,4167.179199,0,2204,1848,0,0,1993,296,4,4,0,0,0,0,4,4,4,0,0,0,4,4,0,0
79,0,4176.922852,4168.717773,3993.845947,4131.281738,4171.281738,4174.871582,4150.769043,4037.94873,4001.53833,4170.769043,3971.281982,3972.820313,4167.692383,4167.179199,0,2320,1844,0,0,1993,303,4,4,0,0,0,0,4,4,4,0,0,0,4,4,0,0
80,0,4176.410156,4167.179199,4040.512695,4162.563965,4172.307617,4178.974121,4188.717773,4065.640869,4058.974365,4171.281738,4010.256348,4002.563965,4169.743652,4169.743652,859,2372,1841,0,0,1993,310,4,4,0,0,0,0,4,4,4,0,0,0,4,4,0,0
81,0,4177.436035,4168.205078,4088.717773,4205.12793,4170.769043,4176.922852,4214.871582,4085.640869,4102.05127,4171.281738,4058.461426,4030.769043,4172.307617,4171.281738,520,2458,1840,0,0,1993,318,4,4,0,0,0,0,4,4,4,0,0,0,4,4,0,0
82,0,4177.94873,4169.743652,4086.666504,4209.230469,4168.717773,4173.846191,4208.717773,4074.358887,4077.94873,4170.769043,4055.384521,4030.256348,4171.794922,4167.179199,0,2492,1841,0,0,1993,325,4,4,0,0,0,0,4,4,4,0,0,0,4,4,0,0
83,0,4177.436035,4169.743652,4060.512695,4184.615234,4169.743652,4171.794922,4197.436035,4053.333252,4046.153809,4170.769043,4024.615234,4019.487061,4169.743652,4168.717773,0,2549,1841,0,0,1993,333,4,4,0,0,0,0,4,4,4,0,0,0,4,4,0,0
84,0,4177.94873,4166.666504,4019.487061,4150.256348,4170.256348,4172.307617,4176.922852,4032.820313,4025.128174,4171.281738,3978.974365,3997.435791,4169.230469,4170.769043,859,2574,1840,0,0,1993,342,4,4,0,0,0,0,4,4,4,0,0,0,4,4,0,0
85,0,4177.94873,4169.743652,3948.205078,4096.922852,4168.717773,4172.820313,4140,3993.845947,3968.205078,4170.769043,3914.871582,3956.923096,4169.230469,4170.256348,520,2596,1837,0,0,1993,350,4,4,0,0,0,0,4,4,4,0,0,0,4,4,0,0
86,0,4170.769043,4174.871582,3868.205078,4024.615234,4169.743652,4172.307617,4111.281738,3946.153809,3889.230713,4170.769043,3850.769043,3916.410156,4169.230469,4169.743652,0,2639,1838,0,0,1993,357,4,4,0,0,0,0,4,4,4,0,0,0,4,4,0,0
87,0,4164.615234,4172.820313,3799.487061,3960.512695,4171.281738,4170.769043,4103.07666,3916.410156,3839.487061,4171.794922,3795.384521,3888.205078,4168.717773,4168.717773,0,2659,1840,0,0,1993,365,4,4,0,0,0,0,4,4,4,0,0,0,4,4,0,0
88,0,4166.666504,4170.256348,3767.179443,3939.487061,4170.769043,4168.717773,4107.179199,3905.640869,3826.666504,4171.794922,3761.53833,3882.563965,4168.717773,4168.717773,859,2697,1849,0,0,1993,374,4,4,0,0,0,0,4,4,4,0,0,0,4,4,0,0
89,0,4169.743652,4174.358887,3776.923096,3947.692139,4170.769043,4170.769043,4114.358887,3904.615234,3836.410156,4171.281738,3763.5896,3900,4170.256348,4168.717773,520,2712,1856,0,0,1993,382,4,4,0,0,0,0,4,4,4,0,0,0,4,4,0,0
90,0,4165.641113,4174.358887,3803.5896,3961.025635,4169.230469,4171.794922,4133.333008,3918.974365,3857.94873,4171.281738,3795.384521,3933.333252,4170.769043,4169.230469,0,2735,1875,0,0,1993,390,4,4,0,0,0,0,4,4,4,0,0,0,4,4,0,0
91,0,4163.07666,4169.743652,3800,3957.435791,4169.230469,4171.281738,4145.641113,3923.076904,3851.281982,4168.717773,3784.102539,3950.769043,4169.230469,4168.205078,0,2743,1882,0,0,1993,397,4,4,0,0,0,0,4,4,4,0,0,0,4,4,0,0
92,0,4165.641113,4174.358887,3774.871582,3939.487061,4168.205078,4168.205078,4136.410156,3902.563965,3816.410156,4170.769043,3749.230713,3958.461426,4170.256348,4168.717773,859,2761,1893,0,0,1993,405,4,4,0,0,0,0,4,4,4,0,0,0,4,4,0,0
93,0,4163.589844,4175.897461,3795.384521,3951.281982,4168.205078,4168.717773,4149.230469,3913.845947,3827.692139,4181.025391,3783.076904,4000,4170.256348,4170.256348,520,2764,1895,0,0,1993,413,4,4,0,0,0,0,4,4,4,0,0,0,4,4,0,0
94,0,4160.512695,4172.307617,3832.307617,3978.461426,4169.743652,4170.256348,4173.333008,3945.128174,3874.358887,4181.538574,3823.076904,4049.743408,4169.230469,4170.256348,0,2770,1894,0,0,1993,421,4,4,0,0,0,0,4,4,4,0,0,0,4,4,0,0
95,0,4160.512695,4172.820313,3811.794678,3968.717773,4171.794922,4170.256348,4161.025391,3933.845947,3863.5896,4171.281738,3782.05127,4055.384521,4169.743652,4166.666504,0,2771,1891,0,0,1993,428,4,4,0,0,0,0,4,4,4,0,0,0,4,4,0,0
96,0,4161.025391,4172.820313,3788.717773,3950.769043,4169.230469,4169.230469,4149.230469,3921.025635,3833.845947,4170.769043,3750.256348,4062.563965,4171.281738,4166.666504,859,2769,1887,0,0,1993,436,4,4,0,0,0,0,4,4,4,0,0,0,4,4,0,0
97,0,4162.05127,4170.769043,3817.94873,3962.563965,4167.179199,4168.717773,4170.256348,3943.5896,3856.410156,4172.307617,3793.845947,4109.230469,4170.769043,4169.230469,520,2761,1886,0,0,1993,444,4,4,0,0,0,0,4,4,4,0,0,0,4,4,0,0
98,0,4164.102539,4170.769043,3834.358887,3966.666504,4168.205078,4167.179199,4177.94873,3951.281982,3876.923096,4171.281738,3816.923096,4144.615234,4169.743652,4169.230469,0,2754,1886,0,0,1993,451,4,4,0,0,0,0,4,4,4,0,0,0,4,4,0,0
99,0,4162.563965,4170.256348,3822.05127,3957.435791,4170.769043,4166.153809,4173.846191,3946.666504,3869.230713,4180,3801.53833,4162.563965,4170.256348,4167.692383,0,2733,1890,0,0,1993,459,4,4,0,0,0,0,4,4,4,0,0,0,4,4,0,0
100,0,4159.487305,4171.281738,3827.692139,3961.025635,4170.256348,4167.179199,4182.563965,3957.94873,3867.692139,4182.563965,3815.384521,4189.743652,4170.256348,4168.205078,859,2720,1893,0,0,1993,468,4,4,0,0,0,0,4,4,4,0,0,0,4,4,0,0
101,0,4160,4173.846191,3824.615234,3948.717773,4168.717773,4168.205078,4178.974121,3954.358887,3855.897461,4171.281738,3828.717773,4205.641113,4169.743652,4169.230469,520,2690,1903,0,0,1993,476,4,4,0,0,0,0,4,4,4,0,0,0,4,4,0,0
102,0,4161.538574,4173.846191,3830.769043,3944.102539,4170.769043,4169.743652,4184.102539,3960.512695,3871.281982,4169.230469,3843.5896,4230.769043,4170.256348,4169.230469,0,2677,1906,0,0,1993,484,4,4,0,0,0,0,4,4,4,0,0,0,4,4,0,0
103,0,4159.487305,4174.871582,3846.666504,3953.845947,4170.256348,4169.743652,4196.410156,3984.615234,3920.512695,4173.846191,3865.128174,4263.07666,4170.769043,4168.717773,0,2647,1913,0,0,1993,492,4,4,0,0,0,0,4,4,4,0,0,0,4,4,0,0
104,0,4160,4177.94873,3800.512695,3911.794678,4168.717773,4168.717773,4168.717773,3955.384521,3873.845947,4170.256348,3816.410156,4240.512695,4169.743652,4167.179199,859,2630,1915,0,0,1993,500,4,4,0,0,0,0,4,4,4,0,0,0,4,4,0,0
105,0,4162.563965,4176.922852,3775.897461,3880,4173.333008,4168.205078,4169.230469,3933.333252,3808.717773,4172.307617,3779.487061,4226.666504,4170.256348,4168.717773,520,2593,1914,0,0,1993,508,4,4,0,0,0,0,4,4,4,0,0,0,4,4,0,0
106,0,4163.589844,4175.384277,3860.512695,3939.487061,4177.94873,4169.230469,4236.922852,3997.435791,3891.794678,4182.563965,3876.923096,4292.307617,4170.256348,4171.281738,0,2573,1915,0,0,1993,516,4,4,0,0,0,0,4,4,4,0,0,0,4,4,0,0
107,0,4163.07666,4175.897461,3914.871582,3983.5896,4173.846191,4170.256348,4269.743652,4042.563965,3985.640869,4181.538574,3960,4334.871582,4169.230469,4170.256348,0,2529,1914,0,0,1993,524,4,4,0,0,0,0,4,4,4,0,0,0,4,4,0,0
108,0,4162.563965,4174.871582,3874.871582,3945.128174,4169.230469,4168.717773,4248.205078,4016.923096,3956.410156,4171.281738,3922.563965,4306.666504,4168.717773,4167.692383,859,2507,1914,0,0,1993,532,4,4,0,0,0,0,4,4,4,0,0,0,4,4,0,0
109,0,4162.563965,4174.871582,3875.384521,3931.281982,4175.384277,4168.205078,4261.538574,4023.5896,3940,4168.717773,3914.358887,4305.12793,4171.794922,4169.230469,520,2480,1913,0,0,1993,540,4,4,0,0,0,0,4,4,4,0,0,0,4,4,0,0
110,0,4162.05127,4174.358887,3931.794678,3973.333252,4175.897461,4169.230469,4297.94873,4072.820313,3988.205078,4171.281738,3968.205078,4336.410156,4173.846191,4169.743652,0,2426,1912,0,0,1993,547,4,4,0,0,0,0,4,4,4,0,0,0,4,4,0,0
111,0,4162.563965,4173.333008,3953.845947,3997.435791,4171.281738,4169.743652,4304.615234,4085.128174,4007.179443,4169.743652,3991.281982,4342.05127,4171.281738,4167.692383,0,2396,1912,0,0,1993,555,4,4,0,0,0,0,4,4,4,0,0,0,4,4,0,0
112,0,4162.563965,4175.897461,3962.05127,3998.461426,4170.256348,4168.717773,4311.281738,4077.94873,4015.897217,4172.820313,4015.897217,4341.025391,4171.281738,4168.717773,859,2331,1910,0,0,1993,562,4,4,0,0,0,0,4,4,4,0,0,0,4,4,0,0
113,0,4162.05127,4177.94873,3990.769043,4009.743408,4170.256348,4168.205078,4332.307617,4087.692139,4044.102539,4183.07666,4056.923096,4352.307617,4172.820313,4171.281738,520,2298,1908,0,0,1993,570,4,4,0,0,0,0,4,4,4,0,0,0,4,4,0,0
114,0,4164.102539,4177.94873,4030.769043,4039.487061,4176.410156,4170.256348,4355.897461,4101.538574,4073.845947,4182.563965,4095.384521,4367.692383,4171.794922,4171.281738,0,2230,1908,0,0,1993,578,4,4,0,0,0,0,4,4,4,0,0,0,4,4,0,0
115,0,4168.717773,4175.384277,4069.230713,4068.717773,4184.102539,4171.794922,4377.94873,4111.794922,4106.153809,4173.333008,4145.641113,4383.07666,4170.256348,4170.256348,0,2197,1906,0,0,1993,585,4,4,0,0,0,0,4,4,4,0,0,0,4,4,0,0
116,0,4168.205078,4174.871582,4093.845947,4083.076904,4183.589844,4170.769043,4394.871582,4121.025391,4142.563965,4170.256348,4176.410156,4385.641113,4170.256348,4170.769043,859,2129,1904,0,0,1993,594,4,4,0,0,0,0,4,4,4,0,0,0,4,4,0,0
117,0,4167.179199,4178.461426,4111.281738,4101.025391,4181.025391,4169.743652,4409.230469,4127.179199,4167.692383,4172.307617,4176.410156,4381.025391,4171.794922,4171.281738,520,2097,1901,0,0,1993,602,4,4,0,0,0,0,4,4,4,0,0,0,4,4,0,0
118,0,4167.179199,4179.487305,4127.692383,4120,4182.05127,4171.281738,4423.589844,4123.589844,4170.256348,4170.256348,4189.743652,4381.025391,4174.358887,4170.769043,0,2031,1902,0,0,1993,610,4,4,0,0,0,0,4,4,4,0,0,0,4,4,0,0
119,0,4167.692383,4172.820313,4148.205078,4131.794922,4174.871582,4172.307617,4443.07666,4127.179199,4180,4169.230469,4240.512695,4384.615234,4173.333008,4170.256348,0,2000,1904,0,0,1993,617,4,4,0,0,0,0,4,4,4,0,0,0,4,4,0,0
120,0,4168.205078,4170.769043,4164.102539,4138.461426,4166.153809,4169.743652,4460,4143.589844,4203.589844,4172.820313,4265.641113,4381.025391,4170.256348,4171.794922,859,1970,1912,0,0,1993,625,4,4,0,0,0,0,4,4,4,0,0,0,4,4,0,0
121,0,4168.205078,4172.820313,4167.179199,4138.974121,4169.743652,4170.256348,4469.743652,4152.820313,4220.512695,4173.846191,4244.102539,4367.692383,4171.281738,4172.820313,520,1909,1916,0,0,1993,633,4,4,0,0,0,0,4,4,4,0,0,0,4,4,0,0
122,0,4169.230469,4171.281738,4174.358887,4145.12793,4171.794922,4174.358887,4474.358887,4151.281738,4227.692383,4170.769043,4247.692383,4360.512695,4172.307617,4170.769043,0,1879,1922,0,0,1993,641,4,4,0,0,0,0,4,4,4,0,0,0,4,4,0,0
123,0,4172.307617,4169.743652,4191.281738,4162.563965,4170.256348,4174.871582,4474.358887,4150.769043,4232.307617,4168.205078,4286.666504,4363.589844,4169.743652,4169.230469,0,1821,1929,0,0,1993,648,4,4,0,0,0,0,4,4,4,0,0,0,4,4,0,0
124,0,4173.846191,4169.743652,4202.563965,4178.461426,4169.743652,4172.307617,4472.307617,4152.820313,4236.410156,4169.743652,4291.794922,4361.025391,4169.743652,4171.281738,859,1792,1935,0,0,1993,657,4,4,0,0,0,0,4,4,4,0,0,0,4,4,0,0
125,0,4173.333008,4170.256348,4210.256348,4184.615234,4169.230469,4171.281738,4476.410156,4154.358887,4248.717773,4172.307617,4275.897461,4350.256348,4171.794922,4172.307617,520,1740,1941,0,0,1993,665,4,4,0,0,0,0,4,4,4,0,0,0,4,4,0,0
126,0,4172.307617,4170.256348,4224.102539,4186.666504,4170.256348,4170.769043,4481.538574,4155.384277,4261.538574,4171.794922,4291.281738,4345.12793,4171.281738,4171.281738,0,1715,1943,0,0,1993,673,4,4,0,0,0,0,4,4,4,0,0,0,4,4,0,0
127,0,4171.794922,4170.769043,4236.922852,4189.230469,4170.769043,4169.743652,4477.435547,4154.358887,4260.512695,4170.256348,4303.589844,4340,4169.743652,4171.794922,0,1666,1951,0,0,1993,681,4,4,0,0,0,0,4,4,4,0,0,0,4,4,0,0
128,0,4172.307617,4167.692383,4251.281738,4201.025391,4169.743652,4169.230469,4477.435547,4154.358887,4269.230469,4170.769043,4295.897461,4334.358887,4170.256348,4170.769043,859,1644,1953,0,0,1993,689,4,4,0,0,0,0,4,4,4,0,0,0,4,4,0,0
0,0,4172.820313,4167.179199,4260,4213.846191,4168.205078,4169.230469,4481.538574,4157.436035,4282.05127,4172.307617,4295.897461,4328.205078,4170.769043,4168.717773,832,1602,1957,0,0,1993,697,4,4,0,0,0,0,4,4,4,0,0,0,4,4,0,0
1,0,4167.179199,4168.205078,4253.846191,4206.153809,4167.179199,4168.205078,4482.563965,4156.922852,4274.358887,4171.794922,4285.12793,4315.897461,4169.230469,4170.256348,683,1581,1959,0,0,1993,705,4,4,0,0,0,0,4,4,4,0,0,0,4,4,0,0
2,0,4165.641113,4167.179199,4253.846191,4198.461426,4167.692383,4169.230469,4484.102539,4152.307617,4265.12793,4169.743652,4257.94873,4308.205078,4170.256348,4170.256348,0,1543,1965,0,0,1993,712,4,4,0,0,0,0,4,4,4,0,0,0,4,4,0,0
3,0,4167.692383,4168.205078,4267.179199,4209.743652,4168.205078,4169.743652,4491.794922,4155.384277,4273.846191,4169.743652,4253.846191,4307.692383,4171.281738,4169.743652,0,1527,1965,0,0,1993,720,4,4,0,0,0,0,4,4,4,0,0,0,4,4,0,0
4,0,4167.179199,4169.230469,4271.281738,4219.487305,4168.205078,4170.256348,4493.846191,4161.025391,4277.436035,4171.281738,4259.487305,4303.07666,4170.256348,4176.410156,0,1508,1966,0,0,1993,728,4,4,0,0,0,0,4,4,4,0,0,0,4,4,0,0
5,0,4168.205078,4170.256348,4255.384277,4207.179199,4167.692383,4170.256348,4471.794922,4148.717773,4259.487305,4171.281738,4232.307617,4284.102539,4169.743652,4177.436035,0,1478,1969,0,0,1993,736,4,4,0,0,0,0,4,4,4,0,0,0,4,4,0,0
6,0,4170.769043,4169.743652,4241.025391,4196.410156,4167.179199,4168.717773,4457.435547,4133.846191,4248.717773,4170.769043,4214.871582,4268.205078,4170.769043,4175.897461,522,1465,1968,0,0,1993,743,4,4,0,0,0,0,4,4,4,0,0,0,4,4,0,0
7,0,4172.820313,4170.769043,4243.589844,4201.025391,4168.205078,4169.230469,4470.769043,4139.487305,4257.94873,4170.769043,4235.384277,4264.102539,4171.281738,4175.897461,479,1441,1964,0,0,1993,751,4,4,0,0,0,0,4,4,4,0,0,0,4,4,0,0
8,0,4171.794922,4171.281738,4246.153809,4201.538574,4168.205078,4171.794922,4474.871582,4141.538574,4261.025391,4170.769043,4232.307617,4258.974121,4170.256348,4171.794922,764,1432,1962,0,0,1993,760,4,4,0,0,0,0,4,4,4,0,0,0,4,4,0,0
9,0,4168.717773,4170.256348,4240.512695,4201.538574,4168.205078,4172.307617,4458.461426,4126.666504,4248.205078,4171.281738,4198.974121,4244.615234,4168.717773,4167.179199,0,1412,1958,0,0,1993,767,4,4,0,0,0,0,4,4,4,0,0,0,4,4,0,0
10,0,4168.717773,4169.230469,4243.589844,4212.307617,4168.717773,4170.256348,4455.897461,4117.94873,4244.102539,4170.769043,4196.922852,4235.897461,4169.230469,4170.769043,0,1404,1956,0,0,1993,775,4,4,0,0,0,0,4,4,4,0,0,0,4,4,0,0
11,0,4173.333008,4168.205078,4250.256348,4223.07666,4168.717773,4169.743652,4462.563965,4120.512695,4241.538574,4170.769043,4207.179199,4233.333008,4171.281738,4172.307617,0,1391,1958,0,0,1993,784,4,4,0,0,0,0,4,4,4,0,0,0,4,4,0,0
12,0,4172.307617,4167.692383,4251.281738,4225.641113,4166.153809,4169.743652,4464.102539,4129.230469,4234.358887,4171.281738,4197.94873,4225.641113,4171.794922,4170.769043,855,1387,1963,0,0,1993,792,4,4,0,0,0,0,4,4,4,0,0,0,4,4,0,0
13,0,4170.769043,4168.717773,4261.538574,4236.410156,4166.153809,4170.256348,4470.769043,4142.05127,4240,4170.769043,4202.563965,4221.025391,4171.281738,4170.769043,521,1383,1966,0,0,1993,799,4,4,0,0,0,0,4,4,4,0,0,0,4,4,0,0
14,0,4169.743652,4170.256348,4270.256348,4254.871582,4168.717773,4171.281738,4469.230469,4141.025391,4241.025391,4169.230469,4213.846191,4220.512695,4171.281738,4169.743652,0,1385,1965,0,0,1993,807,4,4,0,0,0,0,4,4,4,0,0,0,4,4,0,0
15,0,4167.692383,4168.717773,4268.205078,4264.615234,4168.205078,4170.769043,4467.179199,4132.820313,4237.436035,4169.230469,4210.256348,4213.333008,4170.769043,4170.256348,0,1390,1956,0,0,1993,815,4,4,0,0,0,0,4,4,4,0,0,0,4,4,0,0
16,0,4169.230469,4168.205078,4274.358887,4267.692383,4166.666504,4169.743652,4474.871582,4136.410156,4246.666504,4171.281738,4212.820313,4207.692383,4170.256348,4171.794922,0,1400,1952,0,0,1993,822,4,4,0,0,0,0,4,4,4,0,0,0,4,4,0,0
17,0,4169.743652,4170.256348,4290.256348,4276.922852,4169.230469,4169.743652,4470.769043,4138.461426,4253.846191,4170.769043,4215.897461,4206.666504,4169.230469,4169.743652,0,1409,1948,0,0,1993,830,4,4,0,0,0,0,4,4,4,0,0,0,4,4,0,0
18,0,4166.666504,4168.717773,4305.641113,4291.794922,4170.256348,4170.256348,4464.102539,4134.871582,4253.846191,4168.717773,4211.794922,4206.153809,4169.230469,4169.743652,0,1430,1939,0,0,1993,838,4,4,0,0,0,0,4,4,4,0,0,0,4,4,0,0
19,0,4166.666504,4166.153809,4308.205078,4293.846191,4167.179199,4170.256348,4469.230469,4133.846191,4253.846191,4169.743652,4214.871582,4201.025391,4170.256348,4170.769043,0,1444,1936,0,0,1993,846,4,4,0,0,0,0,4,4,4,0,0,0,4,4,0,0
20,0,4169.743652,4166.666504,4313.333008,4298.974121,4166.666504,4170.256348,4476.410156,4137.436035,4267.179199,4171.281738,4241.538574,4204.615234,4170.769043,4168.205078,0,1477,1926,0,0,1993,854,4,4,0,0,0,0,4,4,4,0,0,0,4,4,0,0
21,0,4172.307617,4166.153809,4330.769043,4315.384277,4167.692383,4170.256348,4481.538574,4147.692383,4287.692383,4170.256348,4271.794922,4215.897461,4170.256348,4170.769043,0,1498,1921,0,0,1993,863,4,4,0,0,0,0,4,4,4,0,0,0,4,4,0,0
22,0,4174.871582,4167.179199,4315.384277,4304.102539,4166.666504,4172.307617,4465.12793,4140,4268.205078,4168.717773,4247.179199,4200.512695,4170.256348,4170.769043,0,1543,1909,0,0,1993,870,4,4,0,0,0,0,4,4,4,0,0,0,4,4,0,0
23,0,4173.333008,4168.717773,4281.538574,4283.07666,4167.179199,4171.794922,4437.435547,4118.974121,4233.333008,4169.230469,4213.333008,4169.230469,4170.256348,4166.666504,0,1567,1905,0,0,1993,878,4,4,0,0,0,0,4,4,4,0,0,0,4,4,0,0
24,0,4171.794922,4168.205078,4307.692383,4308.205078,4169.230469,4171.281738,4446.153809,4131.794922,4264.615234,4170.256348,4258.461426,4177.436035,4168.717773,4164.102539,0,1614,1894,0,0,1993,886,4,4,0,0,0,0,4,4,4,0,0,0,4,4,0,0
25,0,4173.333008,4169.743652,4361.025391,4348.205078,4167.692383,4171.794922,4472.820313,4169.230469,4320,4170.256348,4313.846191,4204.102539,4170.256348,4166.666504,0,1638,1891,0,0,1993,894,4,4,0,0,0,0,4,4,4,0,0,0,4,4,0,0
26,0,4174.871582,4171.281738,4342.05127,4332.307617,4167.179199,4172.307617,4455.384277,4167.692383,4305.641113,4170.256348,4282.563965,4183.589844,4172.820313,4166.153809,0,1683,1890,0,0,1993,901,4,4,0,0,0,0,4,4,4,0,0,0,4,4,0,0
27,0,4174.358887,4168.717773,4287.692383,4292.307617,4169.743652,4169.743652,4417.435547,4133.333008,4262.05127,4170.256348,4230.256348,4141.538574,4170.769043,4164.102539,0,1706,1890,0,0,1993,909,4,4,0,0,0,0,4,4,4,0,0,0,4,4,0,0
28,0,4174.358887,4168.717773,4282.563965,4292.307617,4171.281738,4169.743652,4410.256348,4126.666504,4255.897461,4169.230469,4231.281738,4133.846191,4170.256348,4164.615234,0,1731,1890,0,0,1993,918,4,4,0,0,0,0,4,4,4,0,0,0,4,4,0,0
29,0,4174.358887,4173.333008,4271.281738,4290.769043,4169.230469,4173.333008,4395.897461,4127.692383,4241.538574,4170.256348,4221.538574,4122.563965,4171.794922,4165.12793,0,1779,1890,0,0,1993,926,4,4,0,0,0,0,4,4,4,0,0,0,4,4,0,0
30,0,4174.871582,4171.794922,4218.461426,4256.410156,4168.717773,4174.358887,4355.897461,4105.641113,4199.487305,4171.794922,4168.717773,4080.512695,4169.743652,4168.717773,0,1807,1889,0,0,1993,934,4,4,0,0,0,0,4,4,4,0,0,0,4,4,0,0
31,0,4174.358887,4168.717773,4175.897461,4224.615234,4170.769043,4170.769043,4326.153809,4080.512695,4165.641113,4169.743652,4115.384277,4040.512695,4167.692383,4170.769043,0,1865,1885,0,0,1993,943,4,4,0,0,0,0,4,4,4,0,0,0,4,4,0,0
32,0,4173.846191,4170.256348,4145.641113,4199.487305,4169.743652,4170.769043,4303.589844,4058.974365,4134.358887,4171.794922,4079.487061,4016.923096,4171.281738,4169.230469,0,1892,1883,0,0,1993,950,4,4,0,0,0,0,4,4,4,0,0,0,4,4,0,0
33,0,4172.820313,4171.794922,4118.974121,4178.974121,4169.230469,4175.384277,4292.307617,4047.692139,4103.589844,4176.922852,4064.102539,4003.076904,4172.820313,4167.692383,0,1953,1882,0,0,1993,957,4,4,0,0,0,0,4,4,4,0,0,0,4,4,0,0
34,0,4173.333008,4170.256348,4116.410156,4179.487305,4170.256348,4176.410156,4316.410156,4055.897217,4101.538574,4173.846191,4060,3998.974365,4168.717773,4167.179199,0,1981,1881,0,0,1993,965,4,4,0,0,0,0,4,4,4,0,0,0,4,4,0,0
35,0,4173.846191,4167.692383,4113.846191,4180,4169.743652,4173.846191,4340,4064.102539,4112.820313,4169.743652,4056.410156,3996.410156,4167.692383,4169.743652,0,2043,1884,0,0,1993,972,4,4,0,0,0,0,4,4,4,0,0,0,4,4,0,0
36,0,4168.717773,4168.205078,4066.666504,4148.205078,4169.230469,4173.846191,4312.307617,4046.666504,4083.076904,4171.794922,4028.717773,3974.871582,4169.230469,4170.256348,0,2077,1886,0,0,1993,980,4,4,0,0,0,0,4,4,4,0,0,0,4,4,0,0
37,0,4166.666504,4169.743652,3998.461426,4103.07666,4171.281738,4176.410156,4264.102539,4011.794678,4015.897217,4171.281738,3961.53833,3936.923096,4170.769043,4168.717773,0,2150,1888,0,0,1993,988,4,4,0,0,0,0,4,4,4,0,0,0,4,4,0,0
38,0,4172.820313,4168.717773,3946.153809,4066.666504,4171.794922,4174.871582,4240,3983.076904,3962.563965,4169.230469,3900.512695,3907.692139,4169.743652,4165.12793,0,2187,1888,0,0,1993,996,4,4,0,0,0,0,4,4,4,0,0,0,4,4,0,0
39,0,4174.358887,4169.230469,3935.897461,4056.410156,4170.769043,4173.846191,4244.615234,3983.5896,3961.53833,4170.769043,3906.666504,3917.435791,4168.717773,4168.717773,0,2225,1890,0,0,1994,4,4,4,0,0,0,0,4,4,4,0,0,0,4,4,0,0
40,0,4170.256348,4172.307617,3945.640869,4060,4170.769043,4175.897461,4257.94873,4000.512695,3977.94873,4170.256348,3929.230713,3933.333252,4169.743652,4172.307617,0,2294,1895,0,0,1994,12,4,4,0,0,0,0,4,4,4,0,0,0,4,4,0,0
41,0,4172.820313,4171.794922,3920.512695,4040,4173.846191,4177.94873,4251.794922,3989.743408,3944.102539,4169.743652,3890.256348,3916.923096,4171.281738,4173.846191,0,2324,1898,0,0,1994,21,4,4,0,0,0,0,4,4,4,0,0,0,4,4,0,0
42,0,4176.410156,4167.692383,3897.94873,4029.230713,4174.871582,4174.358887,4248.205078,3977.94873,3914.358887,4171.281738,3861.025635,3908.205078,4169.230469,4170.769043,0,2377,1903,0,0,1994,28,4,4,0,0,0,0,4,4,4,0,0,0,4,4,0,0
43,0,4174.871582,4170.769043,3912.307617,4046.153809,4172.307617,4172.820313,4264.102539,3998.461426,3953.333252,4170.769043,3883.5896,3929.743408,4167.179199,4169.230469,0,2400,1903,0,0,1994,37,4,4,0,0,0,0,4,4,4,0,0,0,4,4,0,0
44,0,4172.307617,4174.871582,3909.230713,4046.153809,4169.743652,4177.436035,4261.025391,4016.923096,3968.717773,4170.769043,3877.94873,3932.820313,4167.692383,4168.717773,0,2443,1902,0,0,1994,44,4,4,0,0,0,0,4,4,4,0,0,0,4,4,0,0
45,0,4173.333008,4173.333008,3868.717773,4015.897217,4171.794922,4174.871582,4227.179199,4007.692139,3901.53833,4171.281738,3826.666504,3912.820313,4168.717773,4168.205078,0,2462,1901,0,0,1994,52,4,4,0,0,0,0,4,4,4,0,0,0,4,4,0,0
46,0,4168.717773,4171.794922,3840,3991.281982,4175.897461,4169.230469,4198.974121,3994.871582,3849.230713,4170.256348,3797.94873,3903.5896,4168.717773,4167.692383,0,2496,1907,0,0,1994,59,4,4,0,0,0,0,4,4,4,0,0,0,4,4,0,0
47,0,4165.641113,4172.307617,3832.820313,3981.025635,4174.358887,4169.743652,4200,3993.845947,3861.025635,4169.230469,3799.487061,3909.230713,4169.743652,4168.717773,0,2511,1913,0,0,1994,67,4,4,0,0,0,0,4,4,4,0,0,0,4,4,0,0
48,0,4170.769043,4170.769043,3809.743408,3958.974365,4170.769043,4171.794922,4204.102539,3984.615234,3854.358887,4169.230469,3776.410156,3906.666504,4170.769043,4168.717773,0,2541,1929,0,0,1994,75,4,4,0,0,0,0,4,4,4,0,0,0,4,4,0,0
49,0,4172.307617,4170.256348,3783.076904,3937.435791,4170.769043,4170.769043,4194.358887,3967.179443,3821.025635,4169.743652,3748.205078,3898.461426,4170.256348,4168.717773,0,2553,1943,0,0,1994,82,4,4,0,0,0,0,4,4,4,0,0,0,4,4,0,0
50,0,4165.12793,4171.794922,3789.743408,3940,4172.820313,4170.256348,4198.974121,3971.281982,3831.281982,4170.769043,3770.769043,3911.794678,4169.743652,4169.230469,0,2573,1972,0,0,1994,90,4,4,0,0,0,0,4,4,4,0,0,0,4,4,0,0
51,0,4164.615234,4173.846191,3801.53833,3937.435791,4171.794922,4170.769043,4213.846191,3985.128174,3863.076904,4171.281738,3802.05127,3935.897461,4169.743652,4168.717773,0,2581,1985,0,0,1994,98,4,4,0,0,0,0,4,4,4,0,0,0,4,4,0,0
52,0,4170.769043,4177.436035,3785.128174,3910.769043,4169.230469,4169.743652,4208.717773,3982.563965,3860.512695,4171.281738,3791.281982,3948.717773,4170.256348,4168.717773,0,2588,1996,0,0,1994,106,4,4,0,0,0,0,4,4,4,0,0,0,4,4,0,0
53,0,4168.717773,4175.897461,3779.487061,3906.153809,4169.743652,4171.794922,4202.05127,3983.076904,3858.461426,4171.281738,3781.53833,3963.5896,4169.230469,4169.743652,0,2598,2015,0,0,1994,115,4,4,0,0,0,0,4,4,4,0,0,0,4,4,0,0
54,0,4164.102539,4171.281738,3794.358887,3915.897461,4169.743652,4171.281738,4201.538574,3992.307617,3871.281982,4170.256348,3802.05127,3988.717773,4169.230469,4169.230469,0,2604,2019,0,0,1994,123,4,4,0,0,0,0,4,4,4,0,0,0,4,4,0,0
55,0,4165.12793,4172.820313,3783.5896,3892.307617,4171.281738,4169.230469,4188.717773,3981.025635,3848.717773,4169.230469,3808.205078,4001.025635,4170.769043,4167.692383,0,2615,2022,0,0,1994,131,4,4,0,0,0,0,4,4,4,0,0,0,4,4,0,0
56,0,4165.641113,4170.256348,3763.5896,3869.230713,4170.256348,4167.692383,4181.025391,3964.615234,3815.384521,4169.230469,3780.512695,4005.640869,4170.256348,4169.230469,0,2618,2023,0,0,1994,139,4,4,0,0,0,0,4,4,4,0,0,0,4,4,0,0
57,0,4164.102539,4165.641113,3776.923096,3882.05127,4168.205078,4169.230469,4196.922852,3975.384521,3828.205078,4169.230469,3772.820313,4030.256348,4169.230469,4169.230469,0,2623,2026,0,0,1994,148,4,4,0,0,0,0,4,4,4,0,0,0,4,4,0,0
58,0,4163.07666,4166.666504,3803.076904,3891.281982,4168.717773,4169.743652,4214.358887,3992.307617,3857.435791,4169.230469,3820.512695,4069.230713,4170.769043,4168.205078,0,2623,2031,0,0,1994,155,4,4,0,0,0,0,4,4,4,0,0,0,4,4,0,0
59,0,4163.589844,4169.743652,3798.461426,3876.923096,4169.230469,4167.692383,4214.871582,3990.769043,3847.692139,4169.230469,3856.410156,4088.717773,4171.281738,4168.205078,0,2620,2034,0,0,1994,162,4,4,0,0,0,0,4,4,4,0,0,0,4,4,0,0
60,0,4164.102539,4168.205078,3778.974365,3871.281982,4168.717773,4167.692383,4213.846191,3981.025635,3829.743408,4169.230469,3827.179443,4091.794678,4171.281738,4168.205078,0,2616,2038,0,0,1994,170,4,4,0,0,0,0,4,4,4,0,0,0,4,4,0,0
61,0,4164.615234,4169.230469,3788.205078,3883.076904,4168.205078,4169.230469,4227.179199,3991.794678,3863.5896,4169.230469,3813.845947,4112.307617,4170.769043,4168.205078,0,2605,2038,0,0,1994,177,4,4,0,0,0,0,4,4,4,0,0,0,4,4,0,0
62,0,4165.12793,4171.281738,3804.615234,3889.743408,4169.743652,4168.717773,4237.94873,4006.153809,3885.128174,4169.743652,3846.153809,4137.94873,4170.256348,4169.230469,0,2597,2035,0,0,1994,184,4,4,0,0,0,0,4,4,4,0,0,0,4,4,0,0
63,0,4163.07666,4170.256348,3802.05127,3890.256348,4170.256348,4168.717773,4231.794922,3990.256348,3834.871582,4170.769043,3846.666504,4143.589844,4170.256348,4168.205078,0,2588,2033,0,0,1994,193,4,4,0,0,0,0,4,4,4,0,0,0,4,4,0,0
64,0,4161.538574,4171.281738,3813.845947,3907.692139,4170.256348,4170.256348,4236.922852,3983.5896,3820.512695,4169.743652,3832.820313,4153.333008,4169.743652,4167.692383,832,2566,2024,0,0,1994,201,4,4,0,0,0,0,4,4,4,0,0,0,4,4,0,0
65,0,4162.563965,4171.281738,3841.53833,3921.53833,4169.230469,4169.230469,4256.922852,4007.179443,3875.897461,4170.256348,3857.94873,4180.512695,4170.256348,4168.717773,683,2555,2022,0,0,1994,209,4,4,0,0,0,0,4,4,4,0,0,0,4,4,0,0
66,0,4165.12793,4171.794922,3856.923096,3918.974365,4170.769043,4169.230469,4268.205078,4018.461426,3889.230713,4170.769043,3883.076904,4201.538574,4170.769043,4168.205078,0,2525,2018,0,0,1994,216,4,4,0,0,0,0,4,4,4,0,0,0,4,4,0,0
67,0,4164.102539,4171.794922,3850.256348,3916.410156,4172.307617,4170.256348,4266.666504,4001.53833,3850.256348,4171.281738,3868.205078,4201.538574,4169.743652,4169.743652,0,2509,2020,0,0,1994,225,4,4,0,0,0,0,4,4,4,0,0,0,4,4,0,0
68,0,4163.07666,4172.820313,3840.512695,3915.384521,4173.846191,4169.230469,4265.12793,3994.871582,3845.640869,4171.794922,3851.794678,4195.897461,4169.230469,4172.307617,0,2472,2023,0,0,1994,233,4,4,0,0,0,0,4,4,4,0,0,0,4,4,0,0
69,0,4165.12793,4174.358887,3874.358887,3933.845947,4177.94873,4169.230469,4292.307617,4019.487061,3892.307617,4172.307617,3887.692139,4220.512695,4170.769043,4170.769043,0,2452,2025,0,0,1994,240,4,4,0,0,0,0,4,4,4,0,0,0,4,4,0,0
70,0,4167.179199,4173.846191,3930.256348,3972.307617,4178.974121,4169.743652,4340.512695,4049.230713,3940,4171.281738,3950.769043,4262.05127,4171.281738,4168.205078,520,2407,2029,0,0,1994,248,4,4,0,0,0,0,4,4,4,0,0,0,4,4,0,0
71,0,4166.153809,4174.871582,3936.410156,3981.53833,4175.384277,4169.230469,4359.487305,4053.845947,3943.076904,4170.769043,3970.256348,4269.743652,4171.281738,4168.205078,478,2383,2030,0,0,1994,256,4,4,0,0,0,0,4,4,4,0,0,0,4,4,0,0
72,0,4163.589844,4175.384277,3921.53833,3963.076904,4173.333008,4169.743652,4354.871582,4049.743408,3933.333252,4171.281738,3959.487061,4262.05127,4171.794922,4168.717773,772,2335,2028,0,0,1994,264,4,4,0,0,0,0,4,4,4,0,0,0,4,4,0,0
73,0,4162.05127,4176.410156,3949.230713,3974.358887,4177.94873,4170.769043,4369.743652,4070.256348,3974.871582,4170.769043,3982.563965,4283.07666,4170.769043,4167.179199,0,2308,2027,0,0,1994,271,4,4,0,0,0,0,4,4,4,0,0,0,4,4,0,0
74,0,4164.615234,4177.436035,3975.897217,3994.871582,4175.897461,4170.256348,4391.794922,4083.076904,4015.384521,4170.769043,4017.94873,4303.589844,4170.256348,4168.205078,0,2252,2025,0,0,1994,279,4,4,0,0,0,0,4,4,4,0,0,0,4,4,0,0
75,0,4167.692383,4179.487305,3980,3995.384521,4172.307617,4170.769043,4397.94873,4076.923096,4010.769043,4170.769043,4035.897217,4305.641113,4171.794922,4169.230469,0,2222,2023,0,0,1994,287,4,4,0,0,0,0,4,4,4,0,0,0,4,4,0,0
76,0,4167.179199,4176.410156,4004.615234,4012.307617,4177.436035,4172.307617,4406.153809,4088.717773,4020,4170.769043,4060.512695,4318.974121,4170.256348,4168.205078,856,2193,2023,0,0,1994,295,4,4,0,0,0,0,4,4,4,0,0,0,4,4,0,0
77,0,4167.692383,4174.871582,4038.461426,4035.384521,4180.512695,4173.333008,4423.07666,4105.12793,4055.897217,4170.769043,4080.512695,4333.846191,4169.743652,4168.205078,521,2137,2023,0,0,1994,303,4,4,0,0,0,0,4,4,4,0,0,0,4,4,0,0
78,0,4172.307617,4178.461426,4064.615234,4050.769043,4180.512695,4169.743652,4438.974121,4115.897461,4086.666504,4170.769043,4101.538574,4343.589844,4170.769043,4169.230469,0,2105,2024,0,0,1994,311,4,4,0,0,0,0,4,4,4,0,0,0,4,4,0,0
79,0,4173.333008,4178.974121,4088.205078,4067.179443,4182.05127,4171.794922,4441.538574,4136.410156,4104.615234,4170.769043,4140.512695,4359.487305,4169.230469,4169.230469,0,2043,2025,0,0,1994,319,4,4,0,0,0,0,4,4,4,0,0,0,4,4,0,0
80,0,4170.769043,4175.897461,4105.641113,4074.358887,4184.615234,4177.436035,4445.641113,4162.563965,4121.025391,4170.769043,4160.512695,4368.717773,4172.307617,4167.692383,856,2011,2025,0,0,1994,328,4,4,0,0,0,0,4,4,4,0,0,0,4,4,0,0
81,0,4172.820313,4175.384277,4116.410156,4075.897217,4182.05127,4177.436035,4457.435547,4174.358887,4134.871582,4170.769043,4158.974121,4365.641113,4177.436035,4167.179199,521,1950,2027,0,0,1994,336,4,4,0,0,0,0,4,4,4,0,0,0,4,4,0,0
82,0,4173.846191,4177.436035,4125.641113,4088.717773,4182.05127,4170.256348,4461.538574,4168.717773,4137.94873,4171.281738,4171.281738,4369.230469,4173.333008,4169.230469,0,1919,2028,0,0,1994,343,4,4,0,0,0,0,4,4,4,0,0,0,4,4,0,0
83,0,4171.281738,4178.461426,4143.07666,4101.538574,4184.615234,4174.871582,4463.589844,4166.153809,4150.769043,4171.281738,4188.717773,4380,4167.692383,4169.743652,0,1862,2032,0,0,1994,351,4,4,0,0,0,0,4,4,4,0,0,0,4,4,0,0
84,0,4173.333008,4178.461426,4170.256348,4111.794922,4181.538574,4183.07666,4474.871582,4170.769043,4177.436035,4170.256348,4196.410156,4388.205078,4169.743652,4170.256348,856,1832,2033,0,0,1994,360,4,4,0,0,0,0,4,4,4,0,0,0,4,4,0,0
85,0,4175.384277,4176.922852,4191.794922,4136.922852,4184.102539,4177.436035,4483.589844,4167.179199,4188.717773,4169.743652,4205.641113,4393.846191,4170.769043,4170.769043,521,1779,2034,0,0,1994,368,4,4,0,0,0,0,4,4,4,0,0,0,4,4,0,0
86,0,4172.820313,4172.820313,4203.07666,4156.922852,4185.12793,4172.307617,4487.179199,4155.384277,4186.153809,4170.769043,4220.512695,4397.435547,4169.743652,4170.769043,0,1755,2031,0,0,1994,375,4,4,0,0,0,0,4,4,4,0,0,0,4,4,0,0
87,0,4173.846191,4172.307617,4222.05127,4161.025391,4173.846191,4175.897461,4497.94873,4157.94873,4200.512695,4170.256348,4239.487305,4406.666504,4169.743652,4168.717773,0,1729,2030,0,0,1994,383,4,4,0,0,0,0,4,4,4,0,0,0,4,4,0,0
88,0,4175.897461,4173.333008,4243.589844,4172.820313,4168.717773,4173.846191,4507.179199,4170.256348,4219.487305,4169.743652,4252.820313,4416.410156,4170.256348,4168.717773,856,1680,2025,0,0,1994,390,4,4,0,0,0,0,4,4,4,0,0,0,4,4,0,0
89,0,4173.846191,4173.846191,4252.820313,4191.794922,4176.410156,4169.230469,4510.256348,4169.230469,4224.102539,4170.769043,4251.281738,4413.846191,4170.769043,4170.256348,521,1657,2022,0,0,1994,397,4,4,0,0,0,0,4,4,4,0,0,0,4,4,0,0
90,0,4172.820313,4170.256348,4268.205078,4206.153809,4174.871582,4171.281738,4523.07666,4169.743652,4235.897461,4172.307617,4253.333008,4413.846191,4171.281738,4170.256348,0,1612,2021,0,0,1994,405,4,4,0,0,0,0,4,4,4,0,0,0,4,4,0,0
91,0,4174.358887,4169.743652,4292.307617,4220,4167.179199,4173.333008,4539.487305,4182.05127,4252.820313,4172.307617,4260,4420,4171.281738,4171.281738,0,1589,2020,0,0,1994,413,4,4,0,0,0,0,4,4,4,0,0,0,4,4,0,0
92,0,4173.846191,4170.256348,4297.436035,4226.153809,4169.230469,4169.743652,4540.512695,4183.589844,4261.025391,4172.307617,4255.384277,4414.358887,4172.820313,4171.281738,856,1541,2018,0,0,1994,421,4,4,0,0,0,0,4,4,4,0,0,0,4,4,0,0
93,0,4173.846191,4171.794922,4296.410156,4228.717773,4173.333008,4168.205078,4535.897461,4170.769043,4261.025391,4172.307617,4265.12793,4406.666504,4172.820313,4170.769043,521,1518,2018,0,0,1994,430,4,4,0,0,0,0,4,4,4,0,0,0,4,4,0,0
94,0,4174.358887,4171.281738,4304.615234,4238.461426,4170.769043,4171.281738,4538.974121,4167.179199,4258.461426,4172.307617,4280,4405.641113,4170.256348,4170.256348,0,1472,2018,0,0,1994,438,4,4,0,0,0,0,4,4,4,0,0,0,4,4,0,0
95,0,4173.846191,4168.205078,4310.256348,4246.153809,4169.743652,4173.333008,4539.487305,4171.794922,4265.12793,4172.307617,4271.794922,4399.487305,4169.230469,4174.358887,0,1449,2017,0,0,1994,446,4,4,0,0,0,0,4,4,4,0,0,0,4,4,0,0
96,0,4174.358887,4173.846191,4318.461426,4256.410156,4170.769043,4171.281738,4537.94873,4168.205078,4277.436035,4171.794922,4283.589844,4395.897461,4170.256348,4174.358887,856,1413,2017,0,0,1994,454,4,4,0,0,0,0,4,4,4,0,0,0,4,4,0,0
97,0,4175.897461,4180,4327.692383,4257.94873,4173.333008,4171.794922,4536.922852,4167.692383,4281.538574,4172.307617,4318.461426,4400,4171.281738,4170.769043,521,1396,2014,0,0,1994,462,4,4,0,0,0,0,4,4,4,0,0,0,4,4,0,0
98,0,4176.410156,4174.358887,4325.641113,4243.07666,4171.281738,4172.307617,4533.333008,4170.769043,4278.461426,4171.794922,4318.461426,4392.307617,4169.743652,4168.717773,0,1382,2013,0,0,1994,469,4,4,0,0,0,0,4,4,4,0,0,0,4,4,0,0
99,0,4173.846191,4168.717773,4322.563965,4237.436035,4168.717773,4168.717773,4532.307617,4166.153809,4278.974121,4170.256348,4307.179199,4378.974121,4169.743652,4171.281738,0,1355,2011,0,0,1994,477,4,4,0,0,0,0,4,4,4,0,0,0,4,4,0,0
100,0,4173.333008,4171.794922,4334.358887,4251.794922,4170.256348,4168.717773,4538.461426,4169.230469,4289.743652,4170.256348,4339.487305,4380.512695,4170.256348,4171.281738,856,1345,2007,0,0,1994,485,4,4,0,0,0,0,4,4,4,0,0,0,4,4,0,0
101,0,4174.358887,4170.256348,4358.974121,4272.820313,4166.666504,4170.769043,4550.256348,4186.153809,4316.922852,4171.281738,4389.230469,4388.205078,4169.743652,4169.743652,521,1329,2001,0,0,1994,492,4,4,0,0,0,0,4,4,4,0,0,0,4,4,0,0
102,0,4173.333008,4166.153809,4380.512695,4287.179199,4166.153809,4169.743652,4554.871582,4190.256348,4338.974121,4171.281738,4403.589844,4386.153809,4169.743652,4168.205078,0,1326,1999,0,0,1994,499,4,4,0,0,0,0,4,4,4,0,0,0,4,4,0,0
103,0,4169.230469,4167.692383,4387.179199,4289.743652,4169.743652,4167.692383,4552.820313,4180.512695,4339.487305,4171.281738,4392.307617,4378.461426,4170.769043,4168.205078,0,1320,1991,0,0,1994,508,4,4,0,0,0,0,4,4,4,0,0,0,4,4,0,0
104,0,4169.230469,4167.692383,4398.974121,4295.384277,4161.538574,4168.205078,4562.05127,4190.256348,4351.281738,4170.769043,4412.820313,4379.487305,4169.743652,4169.743652,856,1321,1986,0,0,1994,516,4,4,0,0,0,0,4,4,4,0,0,0,4,4,0,0
105,0,4173.333008,4165.641113,4423.07666,4316.922852,4155.384277,4167.692383,4568.205078,4203.07666,4369.743652,4170.256348,4456.410156,4381.538574,4168.717773,4169.743652,521,1326,1977,0,0,1994,525,4,4,0,0,0,0,4,4,4,0,0,0,4,4,0,0
106,0,4174.358887,4168.205078,4432.820313,4328.717773,4166.153809,4169.743652,4556.922852,4191.794922,4367.179199,4170.256348,4473.846191,4375.384277,4169.743652,4169.743652,0,1331,1974,0,0,1994,532,4,4,0,0,0,0,4,4,4,0,0,0,4,4,0,0
107,0,4175.384277,4169.743652,4435.897461,4328.717773,4171.794922,4170.769043,4550.256348,4184.615234,4364.102539,4170.256348,4476.410156,4367.179199,4169.743652,4172.307617,0,1344,1968,0,0,1994,541,4,4,0,0,0,0,4,4,4,0,0,0,4,4,0,0
108,0,4181.538574,4169.743652,4448.205078,4340,4166.153809,4170.256348,4554.871582,4202.563965,4383.589844,4170.256348,4493.333008,4363.589844,4168.717773,4174.358887,856,1356,1965,0,0,1994,549,4,4,0,0,0,0,4,4,4,0,0,0,4,4,0,0
109,0,4183.07666,4169.743652,4451.281738,4344.102539,4167.692383,4175.384277,4558.974121,4226.666504,4402.05127,4171.281738,4502.05127,4352.820313,4169.743652,4171.794922,521,1381,1958,0,0,1994,556,4,4,0,0,0,0,4,4,4,0,0,0,4,4,0,0
110,0,4180.512695,4170.256348,4445.641113,4336.922852,4172.307617,4177.436035,4563.07666,4239.487305,4406.153809,4172.307617,4494.871582,4333.333008,4170.256348,4167.179199,0,1396,1955,0,0,1994,563,4,4,0,0,0,0,4,4,4,0,0,0,4,4,0,0
111,0,4182.05127,4170.769043,4443.07666,4336.922852,4170.256348,4177.436035,4564.102539,4235.897461,4406.153809,4172.307617,4496.410156,4316.922852,4169.230469,4165.641113,0,1413,1951,0,0,1994,572,4,4,0,0,0,0,4,4,4,0,0,0,4,4,0,0
112,0,4184.102539,4168.717773,4439.487305,4337.436035,4167.179199,4178.974121,4558.974121,4224.615234,4402.05127,4171.794922,4504.615234,4307.692383,4170.769043,4168.717773,856,1453,1944,0,0,1994,579,4,4,0,0,0,0,4,4,4,0,0,0,4,4,0,0
113,0,4181.025391,4169.230469,4423.589844,4328.205078,4172.307617,4179.487305,4545.12793,4218.461426,4394.358887,4170.256348,4493.333008,4290.769043,4172.307617,4167.692383,521,1474,1941,0,0,1994,587,4,4,0,0,0,0,4,4,4,0,0,0,4,4,0,0
114,0,4183.589844,4170.256348,4391.794922,4308.717773,4176.410156,4174.358887,4512.307617,4204.615234,4381.025391,4170.256348,4450.769043,4254.358887,4168.717773,4163.07666,0,1525,1928,0,0,1994,595,4,4,0,0,0,0,4,4,4,0,0,0,4,4,0,0
115,0,4189.230469,4170.769043,4372.820313,4301.025391,4174.871582,4175.384277,4485.641113,4189.743652,4363.589844,4172.307617,4421.025391,4227.179199,4167.692383,4162.05127,0,1557,1922,0,0,1994,603,4,4,0,0,0,0,4,4,4,0,0,0,4,4,0,0
116,0,4184.615234,4170.769043,4366.153809,4298.974121,4172.307617,4178.461426,4468.205078,4180,4336.922852,4172.307617,4412.820313,4215.384277,4169.743652,4164.102539,856,1644,1906,0,0,1994,610,4,4,0,0,0,0,4,4,4,0,0,0,4,4,0,0
117,0,4178.974121,4171.281738,4325.12793,4268.205078,4176.922852,4177.94873,4430.769043,4154.871582,4290.256348,4171.794922,4369.230469,4182.05127,4169.743652,4164.102539,521,1706,1898,0,0,1994,618,4,4,0,0,0,0,4,4,4,0,0,0,4,4,0,0
118,0,4178.974121,4169.230469,4262.05127,4219.487305,4177.94873,4177.94873,4390.256348,4127.179199,4245.12793,4169.743652,4308.205078,4134.358887,4168.205078,4162.563965,0,1861,1891,0,0,1994,626,4,4,0,0,0,0,4,4,4,0,0,0,4,4,0,0
119,0,4181.025391,4171.281738,4203.07666,4176.410156,4175.897461,4178.461426,4359.487305,4106.666504,4193.846191,4169.743652,4255.384277,4096.922852,4170.769043,4165.641113,0,1955,1891,0,0,1994,634,4,4,0,0,0,0,4,4,4,0,0,0,4,4,0,0
120,0,4180.512695,4168.205078,4151.281738,4142.563965,4176.922852,4178.461426,4330.769043,4089.230713,4142.563965,4171.794922,4204.615234,4067.692139,4171.794922,4167.179199,856,2162,1908,0,0,1994,642,4,4,0,0,0,0,4,4,4,0,0,0,4,4,0,0
121,0,4178.974121,4157.94873,4094.871582,4105.12793,4176.922852,4177.94873,4298.461426,4070.769043,4102.563965,4172.307617,4142.563965,4032.820313,4169.743652,4166.666504,521,2267,1921,0,0,1994,651,4,4,0,0,0,0,4,4,4,0,0,0,4,4,0,0
122,0,4176.922852,4154.358887,3969.743408,4025.640869,4175.384277,4178.461426,4215.897461,4012.307617,3998.974365,4170.256348,4015.384521,3955.384521,4168.205078,4167.179199,0,2368,1951,0,0,1994,658,4,4,0,0,0,0,4,4,4,0,0,0,4,4,0,0
123,0,4178.461426,4156.922852,3738.974365,3881.025635,4177.94873,4178.461426,4065.640869,3892.307617,3797.435791,4170.769043,3798.461426,3817.94873,4169.743652,4165.12793,0,2527,1964,0,0,1994,665,4,4,0,0,0,0,4,4,4,0,0,0,4,4,0,0
124,0,4179.487305,4160,3506.153809,3730.256348,4181.538574,4178.974121,3916.923096,3774.358887,3601.025635,4173.333008,3574.358887,3681.025635,4170.256348,4165.12793,856,2590,1974,0,0,1994,673,4,4,0,0,0,0,4,4,4,0,0,0,4,4,0,0
125,0,4176.410156,4165.12793,3333.333252,3612.820313,4178.461426,4177.94873,3802.563965,3687.692139,3447.692139,4174.358887,3390.769043,3580,4168.205078,4168.205078,521,2689,1990,0,0,1994,681,4,4,0,0,0,0,4,4,4,0,0,0,4,4,0,0
126,0,4175.897461,4169.743652,3172.307617,3499.487061,4174.871582,4173.333008,3695.897461,3596.410156,3288.717773,4172.820313,3217.435791,3492.820313,4168.717773,4166.153809,0,2732,1995,0,0,1994,689,4,4,0,0,0,0,4,4,4,0,0,0,4,4,0,0
127,0,4172.307617,4172.307617,3051.281982,3408.205078,4176.410156,4170.769043,3625.640869,3526.666504,3181.025635,4173.333008,3095.897461,3437.435791,4170.769043,4161.538574,0,2806,2005,0,0,1994,697,4,4,0,0,0,0,4,4,4,0,0,0,4,4,0,0
128,0,4163.589844,4180.512695,3063.076904,3411.794678,4173.846191,4170.769043,3646.153809,3541.53833,3221.025635,4173.846191,3104.102539,3464.615234,4171.281738,4164.102539,856,2841,2011,0,0,1994,706,4,4,0,0,0,0,4,4,4,0,0,0,4,4,0,0
0,0,4160.512695,4183.589844,3195.384521,3507.692139,4170.256348,4172.820313,3746.666504,3627.179443,3347.692139,4173.846191,3229.743408,3561.53833,4170.256348,4165.12793,841,2903,2016,0,0,1994,713,4,4,0,0,0,0,4,4,4,0,0,0,4,4,0,0
1,0,4162.05127,4179.487305,3316.923096,3590.256348,4171.281738,4170.769043,3835.384521,3701.025635,3437.94873,4172.307617,3355.897461,3653.845947,4170.769043,4166.666504,688,2929,2020,0,0,1994,721,4,4,0,0,0,0,4,4,4,0,0,0,4,4,0,0
2,0,4161.538574,4177.94873,3380.512695,3628.717773,4174.871582,4169.743652,3874.871582,3731.794678,3481.53833,4171.281738,3412.820313,3710.256348,4170.769043,4169.743652,0,2972,2028,0,0,1994,729,4,4,0,0,0,0,4,4,4,0,0,0,4,4,0,0
3,0,4160.512695,4177.436035,3463.5896,3687.179443,4172.307617,4169.743652,3925.128174,3769.743408,3561.53833,4170.769043,3467.692139,3769.743408,4170.769043,4169.230469,0,2991,2031,0,0,1994,737,4,4,0,0,0,0,4,4,4,0,0,0,4,4,0,0
4,0,4159.487305,4173.846191,3522.05127,3723.5896,4170.769043,4170.256348,3957.435791,3792.307617,3615.384521,4169.743652,3517.94873,3813.333252,4170.256348,4164.615234,0,3023,2033,0,0,1994,745,4,4,0,0,0,0,4,4,4,0,0,0,4,4,0,0
5,0,4160,4173.846191,3505.128174,3701.53833,4171.281738,4168.717773,3941.025635,3766.666504,3573.845947,4169.743652,3520,3818.461426,4170.256348,4166.666504,0,3036,2030,0,0,1994,752,4,4,0,0,0,0,4,4,4,0,0,0,4,4,0,0
6,0,4160.512695,4173.846191,3524.615234,3717.435791,4170.256348,4168.205078,3968.717773,3768.717773,3578.461426,4171.794922,3537.435791,3846.153809,4171.794922,4170.256348,520,3045,2025,0,0,1994,760,4,4,0,0,0,0,4,4,4,0,0,0,4,4,0,0
7,0,4158.974121,4173.333008,3624.615234,3793.333252,4170.256348,4169.743652,4052.820313,3826.666504,3676.410156,4171.794922,3615.897461,3921.53833,4169.230469,4166.666504,481,3058,2016,0,0,1994,769,4,4,0,0,0,0,4,4,4,0,0,0,4,4,0,0
8,0,4158.974121,4175.897461,3687.692139,3829.230713,4170.256348,4170.769043,4093.333252,3856.410156,3724.102539,4171.281738,3684.615234,3978.974365,4170.769043,4163.589844,778,3060,2012,0,0,1994,777,4,4,0,0,0,0,4,4,4,0,0,0,4,4,0,0
9,0,4162.05127,4177.94873,3674.358887,3812.820313,4172.307617,4170.769043,4081.53833,3840,3691.794678,4170.769043,3676.923096,3983.5896,4176.410156,4165.641113,0,3055,2005,0,0,1994,785,4,4,0,0,0,0,4,4,4,0,0,0,4,4,0,0
10,0,4161.538574,4175.384277,3673.845947,3818.461426,4173.333008,4169.743652,4095.384521,3854.871582,3703.076904,4171.281738,3653.333252,3989.743408,4175.897461,4166.666504,0,3048,2002,0,0,1994,793,4,4,0,0,0,0,4,4,4,0,0,0,4,4,0,0
11,0,4161.538574,4174.871582,3729.743408,3862.563965,4174.358887,4169.743652,4153.333008,3907.179443,3761.025635,4171.281738,3700.512695,4037.435791,4171.281738,4161.538574,0,3030,2003,0,0,1994,800,4,4,0,0,0,0,4,4,4,0,0,0,4,4,0,0
12,0,4163.589844,4177.436035,3796.410156,3898.974365,4177.94873,4170.256348,4209.743652,3943.5896,3792.307617,4170.769043,3776.410156,4095.384521,4171.281738,4163.589844,864,3017,2007,0,0,1994,808,4,4,0,0,0,0,4,4,4,0,0,0,4,4,0,0
13,0,4161.538574,4176.410156,3802.05127,3893.845947,4180,4169.230469,4218.461426,3939.487061,3790.256348,4169.743652,3775.384521,4106.666504,4170.256348,4166.153809,527,2983,2012,0,0,1994,815,4,4,0,0,0,0,4,4,4,0,0,0,4,4,0,0
14,0,4156.922852,4176.922852,3797.435791,3894.358887,4176.922852,4169.230469,4223.589844,3933.845947,3794.358887,4170.256348,3751.281982,4107.692383,4168.717773,4162.05127,0,2962,2014,0,0,1994,823,4,4,0,0,0,0,4,4,4,0,0,0,4,4,0,0
15,0,4158.461426,4181.025391,3874.358887,3948.717773,4172.820313,4171.794922,4291.281738,3975.897217,3857.94873,4170.769043,3821.025635,4167.179199,4170.769043,4163.07666,0,2909,2021,0,0,1994,831,4,4,0,0,0,0,4,4,4,0,0,0,4,4,0,0
16,0,4161.538574,4179.487305,3966.153809,4005.640869,4176.922852,4171.281738,4357.94873,4030.769043,3947.179443,4169.743652,3922.563965,4238.461426,4171.281738,4168.205078,0,2877,2027,0,0,1994,839,4,4,0,0,0,0,4,4,4,0,0,0,4,4,0,0
17,0,4159.487305,4176.410156,3992.307617,4019.487061,4182.563965,4169.743652,4363.589844,4045.640869,3984.615234,4169.230469,3965.640869,4260.512695,4168.717773,4167.692383,0,2842,2033,0,0,1994,846,4,4,0,0,0,0,4,4,4,0,0,0,4,4,0,0
18,0,4159.487305,4180,4000,4024.102539,4183.07666,4169.230469,4357.94873,4039.487061,3987.179443,4170.256348,3977.94873,4266.153809,4169.230469,4166.153809,0,2763,2034,0,0,1994,855,4,4,0,0,0,0,4,4,4,0,0,0,4,4,0,0
19,0,4162.05127,4181.025391,4043.5896,4052.820313,4183.589844,4170.769043,4384.102539,4052.820313,4015.384521,4171.281738,4011.794678,4291.794922,4170.256348,4168.717773,0,2717,2034,0,0,1994,863,4,4,0,0,0,0,4,4,4,0,0,0,4,4,0,0
20,0,4163.07666,4174.358887,4085.128174,4076.923096,4183.589844,4171.281738,4407.179199,4068.717773,4056.410156,4171.281738,4045.640869,4310.769043,4171.281738,4169.230469,0,2614,2028,0,0,1994,870,4,4,0,0,0,0,4,4,4,0,0,0,4,4,0,0
21,0,4164.102539,4177.94873,4103.589844,4081.53833,4183.589844,4169.230469,4409.743652,4066.153809,4069.230713,4170.769043,4060,4309.743652,4170.256348,4165.12793,0,2557,2025,0,0,1994,878,4,4,0,0,0,0,4,4,4,0,0,0,4,4,0,0
22,0,4164.615234,4184.102539,4127.179199,4091.794678,4182.05127,4169.230469,4422.05127,4067.179443,4076.923096,4171.281738,4087.692139,4303.589844,4168.717773,4167.692383,0,2426,2013,0,0,1994,887,4,4,0,0,0,0,4,4,4,0,0,0,4,4,0,0
23,0,4162.563965,4182.563965,4158.974121,4112.820313,4184.615234,4171.794922,4449.743652,4080,4090.769043,4171.281738,4116.410156,4296.410156,4169.743652,4168.717773,0,2356,2006,0,0,1994,895,4,4,0,0,0,0,4,4,4,0,0,0,4,4,0,0
24,0,4161.538574,4184.102539,4188.717773,4131.794922,4185.12793,4170.769043,4481.538574,4101.025391,4121.538574,4171.281738,4128.205078,4295.897461,4171.281738,4168.205078,0,2200,1998,0,0,1994,902,4,4,0,0,0,0,4,4,4,0,0,0,4,4,0,0
25,0,4162.05127,4183.07666,4207.692383,4135.384277,4182.563965,4169.230469,4501.538574,4117.436035,4154.358887,4171.794922,4146.666504,4293.846191,4170.256348,4167.692383,0,2121,1996,0,0,1994,910,4,4,0,0,0,0,4,4,4,0,0,0,4,4,0,0
26,0,4161.538574,4174.358887,4221.538574,4133.333008,4183.07666,4169.230469,4518.461426,4127.179199,4168.717773,4173.333008,4180,4279.487305,4170.256348,4165.12793,0,1960,2000,0,0,1994,918,4,4,0,0,0,0,4,4,4,0,0,0,4,4,0,0
27,0,4158.461426,4172.307617,4246.666504,4146.666504,4183.07666,4168.717773,4545.641113,4143.07666,4188.205078,4173.333008,4212.820313,4270.256348,4171.281738,4163.07666,0,1883,2005,0,0,1994,927,4,4,0,0,0,0,4,4,4,0,0,0,4,4,0,0
28,0,4160,4175.384277,4269.230469,4167.179199,4176.410156,4168.205078,4563.07666,4152.820313,4206.666504,4170.769043,4237.436035,4265.12793,4170.256348,4166.153809,0,1736,2021,0,0,1994,934,4,4,0,0,0,0,4,4,4,0,0,0,4,4,0,0
29,0,4163.07666,4176.410156,4298.974121,4192.307617,4170.769043,4169.230469,4569.743652,4151.281738,4219.487305,4168.717773,4266.153809,4266.666504,4169.230469,4167.692383,0,1671,2030,0,0,1994,942,4,4,0,0,0,0,4,4,4,0,0,0,4,4,0,0
30,0,4164.615234,4175.897461,4349.230469,4230.769043,4171.794922,4170.256348,4587.179199,4154.358887,4246.666504,4169.230469,4311.794922,4288.717773,4170.256348,4166.666504,0,1611,2040,0,0,1994,950,4,4,0,0,0,0,4,4,4,0,0,0,4,4,0,0
31,0,4165.12793,4171.281738,4380.512695,4251.281738,4171.281738,4169.743652,4595.897461,4155.384277,4268.205078,4171.794922,4346.666504,4305.12793,4170.769043,4166.666504,0,1510,2057,0,0,1994,958,4,4,0,0,0,0,4,4,4,0,0,0,4,4,0,0
32,0,4166.153809,4168.205078,4389.230469,4252.820313,4167.692383,4169.230469,4591.281738,4153.333008,4272.820313,4170.769043,4351.281738,4299.487305,4169.743652,4167.692383,0,1465,2066,0,0,1994,965,4,4,0,0,0,0,4,4,4,0,0,0,4,4,0,0
33,0,4164.102539,4169.230469,4402.05127,4259.487305,4166.153809,4168.717773,4588.205078,4154.871582,4277.94873,4170.256348,4338.461426,4293.846191,4168.717773,4167.692383,0,1382,2078,0,0,1994,973,4,4,0,0,0,0,4,4,4,0,0,0,4,4,0,0
34,0,4164.102539,4167.692383,4398.461426,4256.922852,4167.692383,4169.743652,4577.435547,4146.666504,4269.230469,4172.820313,4313.846191,4278.461426,4167.692383,4167.692383,0,1343,2083,0,0,1994,981,4,4,0,0,0,0,4,4,4,0,0,0,4,4,0,0
35,0,4167.692383,4164.102539,4386.666504,4246.666504,4168.205078,4169.743652,4565.12793,4135.384277,4254.871582,4172.307617,4292.820313,4253.846191,4167.692383,4166.666504,0,1273,2091,0,0,1994,989,4,4,0,0,0,0,4,4,4,0,0,0,4,4,0,0
36,0,4167.692383,4167.692383,4391.281738,4248.717773,4168.717773,4169.230469,4560,4139.487305,4263.07666,4169.230469,4296.410156,4246.153809,4169.230469,4166.666504,0,1238,2092,0,0,1994,996,4,4,0,0,0,0,4,4,4,0,0,0,4,4,0,0
37,0,4164.102539,4167.692383,4387.179199,4249.230469,4166.666504,4169.743652,4544.102539,4132.820313,4255.384277,4169.230469,4296.922852,4241.538574,4169.743652,4167.692383,0,1175,2094,0,0,1995,4,4,4,0,0,0,0,4,4,4,0,0,0,4,4,0,0
38,0,4167.692383,4166.666504,4373.846191,4241.538574,4166.666504,4168.205078,4531.794922,4116.922852,4234.871582,4170.769043,4282.563965,4229.230469,4168.717773,4167.692383,0,1146,2094,0,0,1995,12,4,4,0,0,0,0,4,4,4,0,0,0,4,4,0,0
39,0,4174.358887,4166.666504,4376.922852,4239.487305,4167.692383,4168.717773,4531.794922,4121.538574,4243.07666,4169.743652,4292.820313,4225.641113,4169.743652,4168.205078,0,1100,2091,0,0,1995,21,4,4,0,0,0,0,4,4,4,0,0,0,4,4,0,0
40,0,4169.230469,4167.692383,4390.256348,4246.153809,4166.666504,4170.769043,4527.692383,4145.12793,4266.666504,4170.256348,4326.153809,4231.281738,4170.769043,4170.256348,0,1082,2090,0,0,1995,28,4,4,0,0,0,0,4,4,4,0,0,0,4,4,0,0
41,0,4163.07666,4168.205078,4411.794922,4267.692383,4166.153809,4170.256348,4531.794922,4175.897461,4290.256348,4171.281738,4352.307617,4241.538574,4169.743652,4170.256348,0,1067,2080,0,0,1995,36,4,4,0,0,0,0,4,4,4,0,0,0,4,4,0,0
42,0,4166.666504,4166.153809,4429.743652,4285.12793,4166.666504,4168.205078,4535.384277,4191.794922,4294.871582,4170.769043,4369.230469,4251.794922,4168.717773,4169.230469,0,1042,2075,0,0,1995,45,4,4,0,0,0,0,4,4,4,0,0,0,4,4,0,0
43,0,4170.769043,4168.717773,4438.974121,4286.666504,4166.153809,4169.743652,4528.717773,4187.692383,4294.358887,4170.769043,4396.922852,4258.461426,4169.743652,4168.717773,0,1030,2063,0,0,1995,52,4,4,0,0,0,0,4,4,4,0,0,0,4,4,0,0
44,0,4170.769043,4166.153809,4447.179199,4289.743652,4165.641113,4171.281738,4523.589844,4185.641113,4307.179199,4171.281738,4416.410156,4262.05127,4170.769043,4170.769043,0,1028,2056,0,0,1995,60,4,4,0,0,0,0,4,4,4,0,0,0,4,4,0,0
45,0,4173.333008,4160,4444.102539,4296.410156,4165.641113,4172.820313,4518.461426,4188.205078,4311.281738,4170.256348,4416.410156,4260.512695,4170.769043,4170.256348,0,1031,2042,0,0,1995,67,4,4,0,0,0,0,4,4,4,0,0,0,4,4,0,0
46,0,4173.846191,4160,4436.410156,4301.025391,4166.153809,4171.794922,4504.102539,4186.153809,4302.05127,4170.256348,4425.641113,4262.05127,4168.717773,4168.205078,0,1035,2037,0,0,1995,75,4,4,0,0,0,0,4,4,4,0,0,0,4,4,0,0
47,0,4173.846191,4163.589844,4429.230469,4295.384277,4166.666504,4172.820313,4492.307617,4188.205078,4311.794922,4170.256348,4434.871582,4265.12793,4168.205078,4168.717773,0,1044,2033,0,0,1995,84,4,4,0,0,0,0,4,4,4,0,0,0,4,4,0,0
48,0,4174.358887,4161.538574,4406.153809,4284.102539,4167.179199,4174.358887,4481.538574,4193.333008,4323.589844,4168.717773,4424.615234,4257.94873,4170.769043,4168.717773,0,1069,2022,0,0,1995,92,4,4,0,0,0,0,4,4,4,0,0,0,4,4,0,0
49,0,4174.871582,4157.94873,4380.512695,4279.487305,4167.692383,4174.358887,4463.589844,4189.230469,4308.205078,4167.692383,4417.435547,4248.205078,4171.281738,4165.641113,0,1083,2017,0,0,1995,99,4,4,0,0,0,0,4,4,4,0,0,0,4,4,0,0
50,0,4172.820313,4162.05127,4358.461426,4266.153809,4167.692383,4174.871582,4441.538574,4180,4281.538574,4169.743652,4406.153809,4243.589844,4170.256348,4167.692383,0,1121,2012,0,0,1995,107,4,4,0,0,0,0,4,4,4,0,0,0,4,4,0,0
51,0,4172.820313,4162.05127,4311.281738,4229.743652,4168.717773,4174.871582,4406.666504,4166.666504,4246.153809,4172.307617,4369.230469,4223.07666,4170.256348,4169.230469,0,1141,2010,0,0,1995,116,4,4,0,0,0,0,4,4,4,0,0,0,4,4,0,0
52,0,4174.871582,4161.025391,4248.205078,4191.281738,4170.256348,4176.410156,4369.230469,4145.641113,4207.692383,4169.743652,4316.922852,4188.717773,4169.743652,4163.07666,0,1185,2010,0,0,1995,124,4,4,0,0,0,0,4,4,4,0,0,0,4,4,0,0
53,0,4176.410156,4167.179199,4187.179199,4151.794922,4168.205078,4175.897461,4336.410156,4120.512695,4170.256348,4170.256348,4256.410156,4153.333008,4169.230469,4161.538574,0,1212,2011,0,0,1995,131,4,4,0,0,0,0,4,4,4,0,0,0,4,4,0,0
54,0,4175.384277,4169.743652,4112.307617,4091.794678,4169.743652,4176.922852,4292.820313,4089.230713,4109.230469,4175.897461,4188.717773,4113.846191,4169.230469,4168.717773,0,1239,2013,0,0,1995,139,4,4,0,0,0,0,4,4,4,0,0,0,4,4,0,0
55,0,4174.871582,4168.205078,4041.53833,4038.974365,4173.846191,4177.436035,4254.358887,4058.461426,4046.153809,4174.358887,4129.743652,4074.358887,4169.230469,4169.743652,0,1296,2021,0,0,1995,147,4,4,0,0,0,0,4,4,4,0,0,0,4,4,0,0
56,0,4174.871582,4167.179199,3995.897217,4012.820313,4172.820313,4180.512695,4231.794922,4036.923096,4005.128174,4169.743652,4080.512695,4043.076904,4168.717773,4163.589844,0,1328,2023,0,0,1995,154,4,4,0,0,0,0,4,4,4,0,0,0,4,4,0,0
57,0,4174.358887,4169.743652,3938.974365,3976.410156,4168.205078,4178.461426,4200.512695,4017.435791,3971.281982,4170.769043,4017.94873,4006.666504,4170.256348,4164.615234,0,1396,2024,0,0,1995,162,4,4,0,0,0,0,4,4,4,0,0,0,4,4,0,0
58,0,4175.897461,4169.230469,3861.025635,3917.94873,4172.820313,4173.846191,4158.461426,3989.230713,3921.025635,4170.769043,3937.435791,3963.5896,4170.256348,4165.12793,0,1434,2025,0,0,1995,170,4,4,0,0,0,0,4,4,4,0,0,0,4,4,0,0
59,0,4175.897461,4168.717773,3804.615234,3872.307617,4176.922852,4176.410156,4124.615234,3956.410156,3864.102539,4168.717773,3861.025635,3929.743408,4168.205078,4164.102539,0,1522,2023,0,0,1995,178,4,4,0,0,0,0,4,4,4,0,0,0,4,4,0,0
60,0,4173.333008,4168.205078,3767.692139,3849.743408,4174.871582,4180.512695,4100,3933.333252,3828.717773,4170.769043,3812.307617,3910.256348,4169.230469,4166.153809,0,1572,2022,0,0,1995,186,4,4,0,0,0,0,4,4,4,0,0,0,4,4,0,0
61,0,4174.358887,4168.205078,3705.128174,3812.307617,4172.307617,4178.974121,4067.179443,3906.666504,3784.102539,4171.794922,3769.743408,3882.563965,4170.769043,4166.153809,0,1694,2021,0,0,1995,194,4,4,0,0,0,0,4,4,4,0,0,0,4,4,0,0
62,0,4174.871582,4169.230469,3617.435791,3748.205078,4176.410156,4175.897461,4022.05127,3860.512695,3699.487061,4175.384277,3693.333252,3834.358887,4169.743652,4166.153809,0,1762,2023,0,0,1995,203,4,4,0,0,0,0,4,4,4,0,0,0,4,4,0,0
63,0,4170.256348,4167.179199,3582.563965,3720,4177.436035,4176.410156,4012.307617,3839.487061,3653.333252,4183.589844,3642.05127,3811.794678,4168.717773,4168.205078,0,1910,2031,0,0,1995,210,4,4,0,0,0,0,4,4,4,0,0,0,4,4,0,0
64,0,4170.769043,4167.179199,3614.871826,3751.794678,4175.384277,4176.922852,4063.076904,3871.794678,3693.845947,4186.666504,3663.076904,3839.487061,4170.256348,4170.256348,835,1988,2040,0,0,1995,218,4,4,0,0,0,0,4,4,4,0,0,0,4,4,0,0
65,0,4173.846191,4167.179199,3616.923096,3766.153809,4175.897461,4175.384277,4087.179443,3891.794678,3723.5896,4181.025391,3663.076904,3850.769043,4170.256348,4167.179199,682,2070,2049,0,0,1995,225,4,4,0,0,0,0,4,4,4,0,0,0,4,4,0,0
66,0,4173.333008,4164.615234,3508.717773,3691.281982,4176.410156,4173.846191,4007.692139,3829.743408,3629.230713,4172.307617,3537.94873,3780,4168.205078,4165.641113,0,2229,2066,0,0,1995,233,4,4,0,0,0,0,4,4,4,0,0,0,4,4,0,0
67,0,4172.307617,4164.615234,3394.871826,3609.230713,4177.436035,4174.358887,3928.205078,3757.435791,3503.076904,4170.256348,3412.820313,3710.256348,4167.692383,4168.717773,0,2301,2073,0,0,1995,242,4,4,0,0,0,0,4,4,4,0,0,0,4,4,0,0
68,0,4170.769043,4168.205078,3391.281982,3616.923096,4176.410156,4175.384277,3943.076904,3767.179443,3502.563965,4173.846191,3427.179443,3724.615234,4169.743652,4166.666504,0,2430,2078,0,0,1995,250,4,4,0,0,0,0,4,4,4,0,0,0,4,4,0,0
69,0,4166.666504,4169.230469,3381.025635,3614.358887,4173.846191,4172.307617,3946.153809,3776.410156,3522.05127,4173.846191,3420.512695,3729.743408,4170.769043,4163.589844,0,2486,2080,0,0,1995,257,4,4,0,0,0,0,4,4,4,0,0,0,4,4,0,0
70,0,4165.12793,4169.230469,3313.333252,3555.897461,4171.794922,4170.256348,3900,3736.410156,3453.846191,4171.281738,3331.794678,3690.256348,4169.743652,4163.589844,516,2583,2085,0,0,1995,264,4,4,0,0,0,0,4,4,4,0,0,0,4,4,0,0
71,0,4166.153809,4170.256348,3314.871826,3557.94873,4170.256348,4169.230469,3908.205078,3738.974365,3441.53833,4172.307617,3333.846191,3703.076904,4169.743652,4164.102539,480,2626,2089,0,0,1995,272,4,4,0,0,0,0,4,4,4,0,0,0,4,4,0,0
72,0,4163.07666,4170.256348,3352.307617,3589.743408,4170.256348,4169.743652,3942.05127,3780.512695,3500.512695,4171.281738,3376.410156,3737.94873,4170.769043,4163.07666,770,2701,2096,0,0,1995,280,4,4,0,0,0,0,4,4,4,0,0,0,4,4,0,0
73,0,4158.974121,4173.846191,3349.230713,3573.333252,4168.717773,4168.717773,3945.640869,3792.820313,3502.563965,4168.205078,3361.025635,3737.435791,4171.281738,4165.641113,0,2736,2102,0,0,1995,288,4,4,0,0,0,0,4,4,4,0,0,0,4,4,0,0
74,0,4158.461426,4177.436035,3424.102539,3614.358887,4169.230469,4166.153809,3996.923096,3837.94873,3555.897461,4171.281738,3438.974365,3788.717773,4170.769043,4167.179199,0,2802,2112,0,0,1995,296,4,4,0,0,0,0,4,4,4,0,0,0,4,4,0,0
75,0,4156.410156,4173.333008,3510.256348,3677.94873,4168.205078,4162.05127,4045.128174,3882.563965,3653.845947,4173.846191,3539.487061,3846.666504,4169.230469,4161.025391,0,2833,2116,0,0,1995,305,4,4,0,0,0,0,4,4,4,0,0,0,4,4,0,0
76,0,4150.256348,4170.256348,3470.256348,3641.025635,4167.692383,4160,4014.871582,3843.5896,3623.5896,4171.281738,3487.179443,3816.410156,4170.769043,4162.563965,860,2891,2118,0,0,1995,313,4,4,0,0,0,0,4,4,4,0,0,0,4,4,0,0
77,0,4147.692383,4171.794922,3513.845947,3661.025635,4167.179199,4161.025391,4051.794678,3860,3635.384521,4173.846191,3532.820313,3843.5896,4172.820313,4165.12793,522,2917,2116,0,0,1995,320,4,4,0,0,0,0,4,4,4,0,0,0,4,4,0,0
78,0,4148.717773,4171.794922,3676.410156,3775.897461,4168.717773,4160.512695,4153.846191,3955.384521,3781.025635,4178.461426,3721.53833,3955.384521,4170.256348,4161.025391,0,2939,2114,0,0,1995,329,4,4,0,0,0,0,4,4,4,0,0,0,4,4,0,0
79,0,4148.205078,4169.743652,3726.153809,3805.640869,4169.743652,4161.538574,4168.205078,3974.358887,3845.128174,4175.384277,3766.666504,3989.230713,4168.717773,4164.102539,0,2977,2108,0,0,1995,336,4,4,0,0,0,0,4,4,4,0,0,0,4,4,0,0
80,0,4148.717773,4168.205078,3731.281982,3803.5896,4168.205078,4160,4169.743652,3963.076904,3847.692139,4168.717773,3757.435791,3989.743408,4170.256348,4169.743652,860,2993,2105,0,0,1995,344,4,4,0,0,0,0,4,4,4,0,0,0,4,4,0,0
81,0,4149.230469,4168.205078,3816.923096,3873.333252,4167.692383,4161.025391,4232.307617,4009.230713,3908.205078,4170.256348,3848.717773,4044.615234,4169.743652,4166.153809,522,3013,2101,0,0,1995,351,4,4,0,0,0,0,4,4,4,0,0,0,4,4,0,0
82,0,4146.666504,4168.717773,3876.923096,3920.512695,4167.179199,4162.563965,4264.615234,4042.563965,3954.871582,4181.538574,3908.717773,4083.5896,4169.230469,4162.05127,0,3021,2098,0,0,1995,359,4,4,0,0,0,0,4,4,4,0,0,0,4,4,0,0
83,0,4148.205078,4171.281738,3875.897461,3912.307617,4167.692383,4162.05127,4256.922852,4036.410156,3966.666504,4182.05127,3893.333252,4078.974365,4169.743652,4166.153809,0,3026,2094,0,0,1995,366,4,4,0,0,0,0,4,4,4,0,0,0,4,4,0,0
84,0,4150.769043,4173.846191,3867.692139,3904.615234,4168.717773,4164.102539,4252.307617,4021.025635,3955.897461,4172.307617,3869.230713,4068.205078,4170.256348,4165.12793,860,3026,2088,0,0,1995,374,4,4,0,0,0,0,4,4,4,0,0,0,4,4,0,0
85,0,4148.205078,4174.358887,3908.205078,3940.512695,4169.743652,4164.102539,4279.487305,4033.845947,3963.5896,4169.743652,3904.102539,4093.845947,4171.281738,4163.07666,522,3021,2075,0,0,1995,382,4,4,0,0,0,0,4,4,4,0,0,0,4,4,0,0
86,0,4145.641113,4174.871582,4023.076904,4024.615234,4168.717773,4163.07666,4352.307617,4102.563965,4085.640869,4173.846191,4030.256348,4168.717773,4171.281738,4169.743652,0,3015,2066,0,0,1995,390,4,4,0,0,0,0,4,4,4,0,0,0,4,4,0,0
87,0,4147.692383,4174.871582,4085.128174,4057.435791,4168.717773,4166.666504,4390.256348,4137.436035,4174.871582,4171.794922,4104.102539,4205.12793,4170.769043,4167.692383,0,3003,2044,0,0,1995,399,4,4,0,0,0,0,4,4,4,0,0,0,4,4,0,0
88,0,4149.743652,4174.871582,4063.076904,4033.333252,4169.230469,4170.256348,4370.769043,4104.615234,4108.205078,4169.743652,4069.230713,4186.153809,4170.769043,4161.538574,860,2992,2034,0,0,1995,407,4,4,0,0,0,0,4,4,4,0,0,0,4,4,0,0
89,0,4152.307617,4174.871582,4102.05127,4071.281982,4169.230469,4168.717773,4394.871582,4115.384277,4095.897217,4172.820313,4092.307617,4212.820313,4169.743652,4165.12793,522,2977,2021,0,0,1995,415,4,4,0,0,0,0,4,4,4,0,0,0,4,4,0,0
90,0,4155.384277,4176.410156,4186.153809,4138.974121,4172.820313,4168.717773,4453.333008,4168.205078,4194.358887,4172.307617,4177.436035,4269.743652,4169.743652,4166.666504,0,2938,2011,0,0,1995,424,4,4,0,0,0,0,4,4,4,0,0,0,4,4,0,0
91,0,4157.94873,4175.384277,4216.410156,4155.897461,4173.846191,4171.794922,4475.897461,4178.974121,4227.692383,4172.307617,4214.358887,4291.794922,4170.256348,4162.05127,0,2913,2005,0,0,1995,431,4,4,0,0,0,0,4,4,4,0,0,0,4,4,0,0
92,0,4158.974121,4176.410156,4238.974121,4175.897461,4173.846191,4169.743652,4491.794922,4187.692383,4245.12793,4173.333008,4241.538574,4311.794922,4169.743652,4167.179199,860,2849,1999,0,0,1995,439,4,4,0,0,0,0,4,4,4,0,0,0,4,4,0,0
93,0,4158.974121,4176.922852,4284.615234,4220.512695,4175.897461,4170.769043,4516.922852,4218.974121,4313.846191,4172.307617,4282.563965,4344.102539,4169.743652,4170.769043,522,2811,1999,0,0,1995,446,4,4,0,0,0,0,4,4,4,0,0,0,4,4,0,0
94,0,4158.974121,4176.922852,4329.743652,4251.281738,4178.461426,4171.281738,4535.384277,4234.871582,4342.05127,4171.794922,4323.07666,4368.717773,4170.769043,4162.563965,0,2725,1998,0,0,1995,454,4,4,0,0,0,0,4,4,4,0,0,0,4,4,0,0
95,0,4158.461426,4182.563965,4364.102539,4270.256348,4182.563965,4172.307617,4553.846191,4238.974121,4330.256348,4170.769043,4367.179199,4390.256348,4171.794922,4161.538574,0,2680,2001,0,0,1995,462,4,4,0,0,0,0,4,4,4,0,0,0,4,4,0,0
96,0,4158.974121,4184.102539,4353.333008,4267.692383,4185.12793,4171.794922,4548.205078,4235.897461,4330.769043,4170.769043,4368.205078,4391.794922,4171.794922,4165.641113,860,2584,2011,0,0,1995,469,4,4,0,0,0,0,4,4,4,0,0,0,4,4,0,0
97,0,4161.025391,4181.538574,4327.179199,4249.230469,4184.102539,4168.205078,4539.487305,4221.538574,4327.179199,4170.769043,4333.846191,4375.897461,4171.281738,4162.563965,522,2531,2019,0,0,1995,476,4,4,0,0,0,0,4,4,4,0,0,0,4,4,0,0
98,0,4160.512695,4184.102539,4333.333008,4246.666504,4183.07666,4171.281738,4543.589844,4211.281738,4320,4170.769043,4323.07666,4370.769043,4171.281738,4164.102539,0,2417,2037,0,0,1995,485,4,4,0,0,0,0,4,4,4,0,0,0,4,4,0,0
99,0,4159.487305,4183.589844,4331.281738,4231.794922,4185.641113,4175.384277,4513.333008,4195.384277,4308.717773,4172.307617,4308.717773,4362.563965,4170.769043,4168.717773,0,2355,2046,0,0,1995,493,4,4,0,0,0,0,4,4,4,0,0,0,4,4,0,0
100,0,4163.589844,4173.846191,4323.589844,4209.743652,4184.615234,4175.384277,4537.94873,4181.025391,4291.281738,4173.333008,4291.794922,4353.333008,4169.230469,4167.692383,860,2214,2066,0,0,1995,501,4,4,0,0,0,0,4,4,4,0,0,0,4,4,0,0
101,0,4165.641113,4176.922852,4353.333008,4222.05127,4181.538574,4175.384277,4677.435547,4191.794922,4303.589844,4171.281738,4318.461426,4367.692383,4169.743652,4166.153809,522,2136,2074,0,0,1995,508,4,4,0,0,0,0,4,4,4,0,0,0,4,4,0,0
102,0,4165.12793,4187.179199,4405.641113,4255.384277,4181.538574,4175.384277,4763.589844,4210.769043,4346.666504,4169.230469,4361.538574,4395.897461,4171.281738,4169.230469,0,2055,2079,0,0,1995,517,4,4,0,0,0,0,4,4,4,0,0,0,4,4,0,0
103,0,4164.102539,4183.589844,4448.717773,4277.94873,4184.102539,4171.281738,4729.743652,4222.563965,4378.461426,4169.743652,4394.358887,4418.461426,4171.281738,4169.230469,0,1893,2082,0,0,1995,525,4,4,0,0,0,0,4,4,4,0,0,0,4,4,0,0
104,0,4165.12793,4182.563965,4463.589844,4279.487305,4180.512695,4169.230469,4698.461426,4231.281738,4363.589844,4170.256348,4419.487305,4421.025391,4170.769043,4168.717773,860,1812,2079,0,0,1995,533,4,4,0,0,0,0,4,4,4,0,0,0,4,4,0,0
105,0,4164.102539,4186.666504,4447.692383,4263.07666,4171.281738,4172.820313,4688.717773,4232.307617,4324.615234,4169.743652,4404.615234,4396.410156,4170.256348,4168.717773,522,1657,2059,0,0,1995,540,4,4,0,0,0,0,4,4,4,0,0,0,4,4,0,0
106,0,4162.563965,4180.512695,4447.692383,4258.461426,4168.205078,4173.333008,4677.94873,4231.794922,4333.333008,4170.256348,4376.410156,4381.538574,4171.794922,4167.692383,0,1586,2044,0,0,1995,548,4,4,0,0,0,0,4,4,4,0,0,0,4,4,0,0
107,0,4163.589844,4168.717773,4487.692383,4292.307617,4163.07666,4168.717773,4697.94873,4241.025391,4376.922852,4170.256348,4400.512695,4396.922852,4173.846191,4169.230469,0,1463,2010,0,0,1995,556,4,4,0,0,0,0,4,4,4,0,0,0,4,4,0,0
108,0,4165.641113,4166.666504,4530.769043,4334.358887,4152.820313,4167.179199,4715.384277,4250.769043,4385.12793,4170.256348,4440,4404.102539,4171.281738,4170.769043,860,1411,1995,0,0,1995,564,4,4,0,0,0,0,4,4,4,0,0,0,4,4,0,0
109,0,4164.102539,4167.179199,4549.743652,4345.12793,4152.307617,4168.717773,4708.205078,4250.769043,4375.897461,4170.256348,4450.256348,4388.717773,4168.717773,4169.743652,522,1330,1977,0,0,1995,572,4,4,0,0,0,0,4,4,4,0,0,0,4,4,0,0
110,0,4162.563965,4165.12793,4534.871582,4329.743652,4162.563965,4170.256348,4700,4240.512695,4384.102539,4170.256348,4440,4361.538574,4168.717773,4168.717773,0,1298,1975,0,0,1995,580,4,4,0,0,0,0,4,4,4,0,0,0,4,4,0,0
111,0,4166.153809,4167.179199,4511.281738,4330.256348,4167.179199,4167.692383,4688.205078,4227.692383,4387.179199,4170.256348,4428.205078,4330.256348,4169.743652,4169.743652,0,1250,1975,0,0,1995,588,4,4,0,0,0,0,4,4,4,0,0,0,4,4,0,0
112,0,4167.692383,4164.615234,4512.307617,4350.769043,4166.153809,4167.692383,4668.717773,4218.461426,4377.435547,4170.256348,4422.05127,4303.07666,4169.230469,4169.230469,860,1232,1978,0,0,1995,596,4,4,0,0,0,0,4,4,4,0,0,0,4,4,0,0
113,0,4166.666504,4155.897461,4501.025391,4340,4166.666504,4169.230469,4645.12793,4197.436035,4360,4170.256348,4395.897461,4268.205078,4169.230469,4167.692383,522,1218,1982,0,0,1995,603,4,4,0,0,0,0,4,4,4,0,0,0,4,4,0,0
114,0,4166.153809,4158.974121,4473.333008,4322.05127,4167.692383,4170.256348,4626.153809,4173.333008,4341.538574,4170.256348,4363.07666,4229.743652,4170.256348,4167.692383,0,1196,1986,0,0,1995,612,4,4,0,0,0,0,4,4,4,0,0,0,4,4,0,0
115,0,4168.717773,4168.717773,4468.205078,4335.897461,4167.179199,4170.769043,4610.769043,4164.615234,4335.897461,4170.256348,4355.897461,4208.205078,4169.230469,4167.692383,0,1187,1992,0,0,1995,620,4,4,0,0,0,0,4,4,4,0,0,0,4,4,0,0
116,0,4172.820313,4167.692383,4451.794922,4327.179199,4165.12793,4169.230469,4576.922852,4144.102539,4308.205078,4170.256348,4332.307617,4176.410156,4168.205078,4167.692383,860,1171,2002,0,0,1995,628,4,4,0,0,0,0,4,4,4,0,0,0,4,4,0,0
117,0,4174.358887,4163.589844,4403.07666,4283.07666,4166.153809,4169.230469,4533.333008,4112.307617,4255.384277,4170.256348,4269.230469,4122.563965,4168.205078,4168.717773,522,1163,2007,0,0,1995,636,4,4,0,0,0,0,4,4,4,0,0,0,4,4,0,0
118,0,4172.307617,4166.666504,4374.871582,4266.153809,4168.205078,4168.717773,4507.692383,4103.589844,4237.436035,4170.256348,4234.871582,4089.743408,4169.230469,4168.205078,0,1149,2014,0,0,1995,645,4,4,0,0,0,0,4,4,4,0,0,0,4,4,0,0
119,0,4171.794922,4169.230469,4384.102539,4285.641113,4168.717773,4170.769043,4493.333008,4109.230469,4247.692383,4170.256348,4254.358887,4085.640869,4169.230469,4168.717773,0,1144,2020,0,0,1995,652,4,4,0,0,0,0,4,4,4,0,0,0,4,4,0,0
120,0,4173.846191,4169.230469,4386.666504,4286.666504,4167.692383,4168.717773,4473.333008,4104.615234,4237.436035,4170.256348,4266.153809,4077.435791,4169.230469,4170.769043,860,1140,2030,0,0,1995,659,4,4,0,0,0,0,4,4,4,0,0,0,4,4,0,0
121,0,4175.384277,4168.717773,4374.358887,4267.179199,4167.692383,4168.205078,4459.487305,4101.538574,4227.692383,4170.769043,4253.333008,4060.512695,4168.717773,4170.256348,522,1142,2037,0,0,1995,667,4,4,0,0,0,0,4,4,4,0,0,0,4,4,0,0
122,0,4174.358887,4167.692383,4370.769043,4266.153809,4167.179199,4175.897461,4454.871582,4108.717773,4239.487305,4171.281738,4260.512695,4052.307617,4169.743652,4169.230469,0,1148,2047,0,0,1995,675,4,4,0,0,0,0,4,4,4,0,0,0,4,4,0,0
123,0,4173.333008,4168.717773,4373.333008,4271.794922,4167.692383,4176.922852,4445.12793,4118.974121,4243.589844,4171.281738,4287.692383,4056.923096,4169.743652,4167.692383,0,1155,2051,0,0,1995,683,4,4,0,0,0,0,4,4,4,0,0,0,4,4,0,0
124,0,4173.846191,4168.717773,4373.333008,4267.692383,4168.205078,4169.230469,4430.769043,4123.589844,4236.410156,4171.794922,4303.07666,4063.5896,4168.205078,4169.743652,860,1179,2058,0,0,1995,692,4,4,0,0,0,0,4,4,4,0,0,0,4,4,0,0
125,0,4172.820313,4167.692383,4373.846191,4272.820313,4167.692383,4169.230469,4420.512695,4124.102539,4233.333008,4171.281738,4310.256348,4062.05127,4169.230469,4168.205078,522,1191,2058,0,0,1995,700,4,4,0,0,0,0,4,4,4,0,0,0,4,4,0,0
126,0,4170.769043,4167.692383,4370.769043,4277.94873,4167.179199,4174.358887,4418.461426,4126.666504,4227.692383,4169.743652,4314.358887,4058.461426,4170.256348,4164.615234,0,1207,2061,0,0,1995,707,4,4,0,0,0,0,4,4,4,0,0,0,4,4,0,0
127,0,4173.846191,4167.692383,4351.281738,4257.436035,4167.692383,4171.281738,4409.743652,4125.12793,4206.666504,4170.256348,4293.846191,4051.794678,4169.230469,4164.615234,0,1244,2073,0,0,1995,715,4,4,0,0,0,0,4,4,4,0,0,0,4,4,0,0
128,0,4177.436035,4166.666504,4322.563965,4235.384277,4170.256348,4173.333008,4393.333008,4118.461426,4195.384277,4172.307617,4267.179199,4036.410156,4169.743652,4163.07666,860,1265,2076,0,0,1995,722,4,4,0,0,0,0,4,4,4,0,0,0,4,4,0,0
0,0,4176.922852,4165.641113,4287.179199,4214.871582,4169.743652,4176.922852,4373.333008,4113.333008,4190.256348,4171.794922,4253.333008,4017.94873,4169.743652,4162.563965,825,1309,2083,0,0,1995,730,4,4,0,0,0,0,4,4,4,0,0,0,4,4,0,0
1,0,4177.436035,4166.153809,4226.666504,4170.256348,4169.743652,4175.384277,4338.461426,4097.94873,4146.666504,4170.256348,4215.897461,3992.820313,4168.717773,4164.102539,677,1335,2083,0,0,1995,737,4,4,0,0,0,0,4,4,4,0,0,0,4,4,0,0
2,0,4176.410156,4167.692383,4162.563965,4127.692383,4170.769043,4173.846191,4292.307617,4071.281982,4079.487061,4170.256348,4157.94873,3964.102539,4169.743652,4167.179199,0,1389,2085,0,0,1995,744,4,4,0,0,0,0,4,4,4,0,0,0,4,4,0,0
3,0,4174.358887,4169.230469,4117.436035,4096.410156,4170.256348,4176.410156,4254.358887,4054.358887,4050.769043,4170.256348,4115.897461,3944.102539,4170.769043,4165.12793,0,1417,2086,0,0,1995,753,4,4,0,0,0,0,4,4,4,0,0,0,4,4,0,0
4,0,4176.922852,4169.230469,4068.205078,4050.256348,4168.205078,4175.897461,4225.641113,4041.53833,4041.025635,4169.230469,4077.94873,3920,4168.717773,4162.563965,0,1476,2083,0,0,1995,761,4,4,0,0,0,0,4,4,4,0,0,0,4,4,0,0
5,0,4177.94873,4169.230469,4003.076904,4000,4171.794922,4176.922852,4189.743652,4014.358887,3972.307617,4169.743652,4024.615234,3885.128174,4168.717773,4162.05127,0,1509,2080,0,0,1995,769,4,4,0,0,0,0,4,4,4,0,0,0,4,4,0,0
6,0,4174.358887,4169.230469,3954.871582,3970.256348,4175.384277,4177.436035,4164.615234,4000,3944.615234,4171.281738,3991.794678,3863.076904,4170.769043,4166.666504,506,1591,2069,0,0,1995,778,4,4,0,0,0,0,4,4,4,0,0,0,4,4,0,0
7,0,4174.358887,4169.230469,3932.820313,3958.461426,4173.333008,4175.897461,4169.743652,4010.256348,3987.179443,4168.717773,3991.281982,3860.512695,4170.769043,4166.153809,471,1642,2061,0,0,1995,786,4,4,0,0,0,0,4,4,4,0,0,0,4,4,0,0
8,0,4174.871582,4169.743652,3883.5896,3931.281982,4170.256348,4174.358887,4161.025391,3994.871582,3911.281982,4171.281738,3946.666504,3838.461426,4170.256348,4160,766,1701,2051,0,0,1995,793,4,4,0,0,0,0,4,4,4,0,0,0,4,4,0,0
9,0,4173.846191,4172.307617,3795.384521,3872.307617,4171.794922,4176.922852,4113.846191,3956.410156,3770.769043,4182.563965,3850.769043,3787.692139,4169.743652,4161.025391,0,1834,2037,0,0,1995,802,4,4,0,0,0,0,4,4,4,0,0,0,4,4,0,0
10,0,4174.358887,4167.692383,3728.717773,3816.923096,4174.358887,4177.94873,4075.384521,3940.512695,3749.743408,4184.102539,3795.384521,3753.333252,4170.256348,4166.666504,0,1907,2035,0,0,1995,809,4,4,0,0,0,0,4,4,4,0,0,0,4,4,0,0
11,0,4177.436035,4161.538574,3688.205078,3792.820313,4175.384277,4176.922852,4063.076904,3931.794678,3749.743408,4172.307617,3767.692139,3737.435791,4171.281738,4167.692383,0,2045,2051,0,0,1995,816,4,4,0,0,0,0,4,4,4,0,0,0,4,4,0,0
12,0,4176.922852,4164.102539,3615.384521,3767.179443,4178.974121,4177.436035,4030.769043,3894.871582,3666.666504,4168.717773,3701.025635,3706.666504,4170.256348,4166.153809,856,2104,2070,0,0,1995,824,4,4,0,0,0,0,4,4,4,0,0,0,4,4,0,0
13,0,4176.410156,4167.179199,3498.461426,3708.717773,4178.974121,4175.897461,3964.102539,3838.461426,3588.205078,4171.794922,3603.076904,3650.256348,4168.717773,4164.102539,522,2193,2129,0,0,1995,832,4,4,0,0,0,0,4,4,4,0,0,0,4,4,0,0
14,0,4178.461426,4164.102539,3401.53833,3661.53833,4178.461426,4173.846191,3901.53833,3786.666504,3528.205078,4170.256348,3509.230713,3595.897461,4169.230469,4164.615234,0,2224,2162,0,0,1995,840,4,4,0,0,0,0,4,4,4,0,0,0,4,4,0,0
15,0,4175.897461,4166.153809,3352.820313,3639.487061,4178.461426,4175.897461,3865.128174,3756.923096,3467.179443,4169.230469,3435.384521,3568.717773,4171.281738,4165.12793,0,2274,2237,0,0,1995,848,4,4,0,0,0,0,4,4,4,0,0,0,4,4,0,0
16,0,4168.205078,4176.410156,3321.53833,3605.640869,4175.384277,4173.333008,3849.230713,3743.5896,3442.05127,4171.281738,3390.256348,3553.333252,4170.769043,4164.615234,0,2292,2276,0,0,1995,856,4,4,0,0,0,0,4,4,4,0,0,0,4,4,0,0
17,0,4165.12793,4181.025391,3301.53833,3570.256348,4170.769043,4168.717773,3842.05127,3732.820313,3436.410156,4171.281738,3368.717773,3537.435791,4167.692383,4163.07666,0,2327,2345,0,0,1995,863,4,4,0,0,0,0,4,4,4,0,0,0,4,4,0,0
18,0,4162.563965,4181.025391,3296.923096,3553.845947,4170.256348,4166.666504,3835.384521,3728.205078,3437.435791,4170.769043,3359.487061,3534.358887,4168.717773,4162.563965,0,2345,2373,0,0,1995,871,4,4,0,0,0,0,4,4,4,0,0,0,4,4,0,0
19,0,4157.436035,4179.487305,3298.461426,3533.845947,4171.794922,4169.743652,3834.871582,3735.897461,3449.743408,4171.281738,3365.640869,3544.102539,4170.256348,4163.07666,0,2363,2419,0,0,1995,879,4,4,0,0,0,0,4,4,4,0,0,0,4,4,0,0
20,0,4156.410156,4178.974121,3317.435791,3515.897461,4170.256348,4169.230469,3847.179443,3751.794678,3474.358887,4170.769043,3390.769043,3551.794678,4169.230469,4163.07666,0,2398,2437,0,0,1995,887,4,4,0,0,0,0,4,4,4,0,0,0,4,4,0,0
21,0,4158.461426,4180,3367.179443,3533.333252,4171.794922,4168.717773,3872.307617,3775.384521,3518.461426,4170.769043,3433.846191,3555.384521,4171.794922,4163.07666,0,2414,2454,0,0,1995,895,4,4,0,0,0,0,4,4,4,0,0,0,4,4,0,0
22,0,4157.436035,4176.410156,3424.102539,3563.5896,4171.794922,4168.717773,3900.512695,3802.563965,3564.615234,4170.769043,3479.487061,3563.076904,4174.871582,4164.102539,0,2441,2488,0,0,1995,903,4,4,0,0,0,0,4,4,4,0,0,0,4,4,0,0
23,0,4157.436035,4169.230469,3487.179443,3596.923096,4170.769043,4169.743652,3933.845947,3835.384521,3612.307617,4170.769043,3539.487061,3594.358887,4176.922852,4165.641113,0,2456,2505,0,0,1995,911,4,4,0,0,0,0,4,4,4,0,0,0,4,4,0,0
24,0,4160.512695,4170.769043,3567.179443,3656.410156,4171.794922,4168.717773,3982.563965,3871.281982,3677.94873,4170.256348,3629.743408,3649.743408,4175.384277,4163.589844,0,2479,2543,0,0,1995,918,4,4,0,0,0,0,4,4,4,0,0,0,4,4,0,0
25,0,4158.461426,4173.846191,3628.717773,3711.794678,4170.256348,4166.666504,4034.358887,3899.487061,3737.435791,4171.281738,3698.974365,3692.307617,4174.358887,4161.538574,0,2488,2559,0,0,1995,926,4,4,0,0,0,0,4,4,4,0,0,0,4,4,0,0
26,0,4157.94873,4171.281738,3668.717773,3744.615234,4170.769043,4169.230469,4076.410156,3922.563965,3776.410156,4171.794922,3723.076904,3718.461426,4173.846191,4164.102539,0,2505,2587,0,0,1995,935,4,4,0,0,0,0,4,4,4,0,0,0,4,4,0,0
27,0,4163.589844,4171.794922,3721.025635,3786.666504,4174.358887,4171.794922,4110.769043,3947.179443,3807.179443,4168.717773,3762.563965,3753.845947,4175.384277,4165.641113,0,2510,2597,0,0,1995,943,4,4,0,0,0,0,4,4,4,0,0,0,4,4,0,0
28,0,4165.641113,4176.410156,3783.076904,3843.5896,4175.384277,4171.281738,4147.179199,3975.897217,3843.5896,4172.820313,3832.820313,3794.358887,4175.897461,4165.12793,0,2520,2607,0,0,1995,951,4,4,0,0,0,0,4,4,4,0,0,0,4,4,0,0
29,0,4162.563965,4176.410156,3832.820313,3882.05127,4174.358887,4170.769043,4187.179199,4008.717773,3907.179443,4180.512695,3887.179443,3829.230713,4172.307617,4167.692383,0,2519,2604,0,0,1995,960,4,4,0,0,0,0,4,4,4,0,0,0,4,4,0,0
30,0,4165.641113,4173.846191,3867.179443,3904.615234,4175.384277,4172.307617,4207.692383,4028.717773,3959.487061,4176.922852,3921.025635,3856.410156,4170.256348,4169.230469,0,2513,2579,0,0,1995,968,4,4,0,0,0,0,4,4,4,0,0,0,4,4,0,0
31,0,4166.666504,4173.846191,3895.384521,3931.794678,4174.358887,4171.281738,4203.589844,4029.230713,3962.563965,4167.692383,3947.692139,3871.281982,4171.281738,4166.666504,0,2508,2557,0,0,1995,975,4,4,0,0,0,0,4,4,4,0,0,0,4,4,0,0
32,0,4164.102539,4175.897461,3932.307617,3964.615234,4171.794922,4169.230469,4221.025391,4043.076904,3986.153809,4171.281738,3976.923096,3894.358887,4171.794922,4167.692383,0,2499,2527,0,0,1995,983,4,4,0,0,0,0,4,4,4,0,0,0,4,4,0,0
33,0,4165.12793,4176.922852,3983.076904,4005.640869,4172.820313,4171.281738,4265.641113,4085.640869,4067.692139,4177.436035,4030.769043,3933.333252,4170.256348,4170.256348,0,2472,2442,0,0,1995,991,4,4,0,0,0,0,4,4,4,0,0,0,4,4,0,0
34,0,4166.666504,4174.871582,4030.769043,4051.794678,4172.820313,4171.794922,4290.256348,4107.692383,4101.538574,4172.307617,4091.281982,3963.5896,4171.794922,4169.743652,0,2451,2382,0,0,1995,998,4,4,0,0,0,0,4,4,4,0,0,0,4,4,0,0
35,0,4168.205078,4174.871582,4066.666504,4084.615234,4172.820313,4171.281738,4296.410156,4101.025391,4080.512695,4170.769043,4122.563965,3982.05127,4175.897461,4168.717773,0,2421,2236,0,0,1996,6,4,4,0,0,0,0,4,4,4,0,0,0,4,4,0,0
36,0,4171.281738,4174.871582,4123.07666,4125.12793,4175.384277,4172.820313,4339.487305,4135.897461,4138.974121,4179.487305,4172.307617,4027.692139,4174.358887,4167.179199,0,2404,2158,0,0,1996,13,4,4,0,0,0,0,4,4,4,0,0,0,4,4,0,0
37,0,4172.820313,4174.871582,4204.102539,4193.846191,4175.897461,4173.846191,4404.615234,4199.487305,4234.871582,4183.589844,4268.205078,4104.102539,4170.256348,4165.12793,0,2357,2009,0,0,1996,21,4,4,0,0,0,0,4,4,4,0,0,0,4,4,0,0
38,0,4169.743652,4175.897461,4272.307617,4254.358887,4181.538574,4170.769043,4446.153809,4226.153809,4262.563965,4182.05127,4346.666504,4175.897461,4173.333008,4167.692383,0,2329,1945,0,0,1996,29,4,4,0,0,0,0,4,4,4,0,0,0,4,4,0,0
39,0,4169.230469,4172.820313,4346.666504,4316.410156,4185.641113,4173.333008,4484.102539,4244.615234,4304.615234,4183.589844,4431.794922,4252.820313,4178.461426,4172.820313,0,2280,1852,0,0,1996,37,4,4,0,0,0,0,4,4,4,0,0,0,4,4,0,0
40,0,4172.307617,4169.230469,4452.820313,4410.769043,4183.07666,4176.922852,4550.256348,4302.563965,4424.615234,4184.615234,4560,4345.641113,4172.820313,4172.307617,0,2254,1821,0,0,1996,44,4,4,0,0,0,0,4,4,4,0,0,0,4,4,0,0
41,0,4172.820313,4169.743652,4550.769043,4491.281738,4183.589844,4173.846191,4615.384277,4356.922852,4518.461426,4182.05127,4664.102539,4417.94873,4166.666504,4166.153809,0,2205,1785,0,0,1996,53,4,4,0,0,0,0,4,4,4,0,0,0,4,4,0,0
42,0,4168.717773,4171.794922,4590.769043,4510.769043,4184.615234,4168.717773,4621.538574,4352.307617,4521.025391,4182.05127,4693.333008,4440,4169.743652,4161.025391,0,2183,1775,0,0,1996,61,4,4,0,0,0,0,4,4,4,0,0,0,4,4,0,0
43,0,4164.102539,4171.281738,4604.102539,4508.205078,4176.410156,4170.256348,4605.641113,4340,4538.974121,4182.05127,4694.358887,4430.256348,4172.820313,4161.538574,0,2162,1752,0,0,1996,69,4,4,0,0,0,0,4,4,4,0,0,0,4,4,0,0
44,0,4160.512695,4171.794922,4645.12793,4528.205078,4172.820313,4172.820313,4632.820313,4376.410156,4622.05127,4181.538574,4743.589844,4431.794922,4168.205078,4163.589844,0,2123,1737,0,0,1996,76,4,4,0,0,0,0,4,4,4,0,0,0,4,4,0,0
45,0,4157.94873,4172.307617,4663.07666,4524.102539,4174.358887,4170.256348,4622.05127,4377.435547,4615.384277,4183.07666,4788.717773,4425.12793,4166.666504,4161.538574,0,2107,1717,0,0,1996,84,4,4,0,0,0,0,4,4,4,0,0,0,4,4,0,0
46,0,4156.922852,4168.717773,4617.94873,4471.281738,4170.256348,4169.230469,4532.820313,4315.897461,4520,4182.563965,4746.153809,4378.974121,4167.692383,4159.487305,0,2080,1668,0,0,1996,92,4,4,0,0,0,0,4,4,4,0,0,0,4,4,0,0
47,0,4155.384277,4170.256348,4604.615234,4456.410156,4168.205078,4170.256348,4510.769043,4332.820313,4569.743652,4182.05127,4721.538574,4353.846191,4169.230469,4162.05127,0,2069,1643,0,0,1996,100,4,4,0,0,0,0,4,4,4,0,0,0,4,4,0,0
48,0,4153.846191,4169.230469,4618.974121,4472.820313,4167.692383,4168.717773,4544.615234,4382.563965,4660,4183.589844,4754.358887,4357.435547,4169.743652,4167.179199,0,2049,1598,0,0,1996,108,4,4,0,0,0,0,4,4,4,0,0,0,4,4,0,0
49,0,4157.94873,4166.153809,4582.563965,4444.102539,4168.717773,4170.256348,4509.230469,4336.922852,4584.102539,4180.512695,4733.333008,4329.743652,4167.692383,4166.153809,0,2041,1578,0,0,1996,116,4,4,0,0,0,0,4,4,4,0,0,0,4,4,0,0
50,0,4159.487305,4158.974121,4570.256348,4427.179199,4168.205078,4169.743652,4483.07666,4313.333008,4542.563965,4174.358887,4702.05127,4311.281738,4168.717773,4164.615234,0,2031,1546,0,0,1996,123,4,4,0,0,0,0,4,4,4,0,0,0,4,4,0,0
51,0,4158.461426,4155.897461,4602.563965,4456.410156,4163.589844,4167.692383,4525.12793,4368.717773,4634.358887,4170.256348,4729.230469,4328.205078,4170.256348,4165.12793,0,2027,1532,0,0,1996,131,4,4,0,0,0,0,4,4,4,0,0,0,4,4,0,0
52,0,4159.487305,4162.05127,4613.333008,4469.230469,4160.512695,4167.692383,4552.307617,4391.281738,4681.025391,4169.743652,4751.281738,4334.358887,4169.230469,4165.12793,0,2020,1512,0,0,1996,139,4,4,0,0,0,0,4,4,4,0,0,0,4,4,0,0
53,0,4161.025391,4164.102539,4618.461426,4465.641113,4165.12793,4168.717773,4535.897461,4361.538574,4642.05127,4176.410156,4749.230469,4330.256348,4169.230469,4162.563965,0,2017,1500,0,0,1996,147,4,4,0,0,0,0,4,4,4,0,0,0,4,4,0,0
54,0,4159.487305,4161.538574,4638.974121,4476.922852,4165.12793,4166.153809,4516.922852,4338.461426,4609.743652,4181.025391,4758.974121,4337.94873,4169.230469,4163.07666,0,2013,1478,0,0,1996,155,4,4,0,0,0,0,4,4,4,0,0,0,4,4,0,0
55,0,4156.410156,4163.589844,4677.435547,4513.846191,4159.487305,4164.102539,4539.487305,4362.05127,4658.974121,4174.871582,4796.922852,4358.974121,4168.717773,4164.102539,0,2010,1464,0,0,1996,164,4,4,0,0,0,0,4,4,4,0,0,0,4,4,0,0
56,0,4155.384277,4169.743652,4717.94873,4552.820313,4162.05127,4166.153809,4579.487305,4412.820313,4746.666504,4169.743652,4841.538574,4383.07666,4169.743652,4164.615234,0,2010,1454,0,0,1996,172,4,4,0,0,0,0,4,4,4,0,0,0,4,4,0,0
57,0,4151.281738,4165.641113,4689.230469,4524.615234,4162.05127,4164.102539,4550.256348,4385.641113,4689.230469,4171.794922,4807.692383,4364.102539,4170.256348,4163.07666,0,2009,1444,0,0,1996,180,4,4,0,0,0,0,4,4,4,0,0,0,4,4,0,0
58,0,4150.769043,4163.07666,4630.256348,4474.871582,4161.025391,4163.07666,4493.846191,4311.794922,4558.461426,4173.333008,4728.717773,4324.102539,4167.692383,4163.589844,0,2007,1444,0,0,1996,188,4,4,0,0,0,0,4,4,4,0,0,0,4,4,0,0
59,0,4150.769043,4164.102539,4655.384277,4501.538574,4162.05127,4163.589844,4515.897461,4330.769043,4595.384277,4172.820313,4744.102539,4338.461426,4168.717773,4165.641113,0,2005,1463,0,0,1996,195,4,4,0,0,0,0,4,4,4,0,0,0,4,4,0,0
60,0,4152.307617,4161.025391,4689.230469,4530.256348,4160.512695,4165.12793,4553.333008,4377.435547,4675.897461,4171.281738,4786.666504,4357.435547,4173.846191,4166.153809,0,2005,1482,0,0,1996,202,4,4,0,0,0,0,4,4,4,0,0,0,4,4,0,0
61,0,4150.769043,4163.07666,4668.205078,4512.307617,4162.05127,4166.666504,4543.589844,4366.153809,4654.358887,4168.717773,4758.974121,4335.384277,4172.820313,4167.179199,0,2008,1526,0,0,1996,211,4,4,0,0,0,0,4,4,4,0,0,0,4,4,0,0
62,0,4152.307617,4168.717773,4656.922852,4505.12793,4168.205078,4169.230469,4535.384277,4357.94873,4643.07666,4171.281738,4724.615234,4318.974121,4167.692383,4166.666504,0,2013,1551,0,0,1996,219,4,4,0,0,0,0,4,4,4,0,0,0,4,4,0,0
63,0,4152.307617,4169.743652,4644.615234,4496.410156,4167.179199,4166.153809,4526.666504,4360,4650.769043,4172.820313,4716.922852,4308.205078,4168.205078,4164.615234,0,2024,1608,0,0,1996,227,4,4,0,0,0,0,4,4,4,0,0,0,4,4,0,0
64,0,4148.717773,4167.179199,4595.897461,4459.487305,4160.512695,4161.538574,4491.281738,4332.820313,4595.897461,4170.769043,4690.256348,4277.94873,4170.769043,4164.102539,826,2032,1635,0,0,1996,234,4,4,0,0,0,0,4,4,4,0,0,0,4,4,0,0
65,0,4148.717773,4169.743652,4549.230469,4421.025391,4162.05127,4165.12793,4450.256348,4309.743652,4540.512695,4171.281738,4637.94873,4245.641113,4169.230469,4163.07666,681,2044,1693,0,0,1996,242,4,4,0,0,0,0,4,4,4,0,0,0,4,4,0,0
66,0,4151.794922,4170.769043,4527.179199,4394.871582,4163.07666,4166.666504,4424.102539,4311.794922,4533.846191,4172.307617,4595.384277,4230.256348,4168.205078,4164.615234,0,2048,1722,0,0,1996,251,4,4,0,0,0,0,4,4,4,0,0,0,4,4,0,0
67,0,4155.897461,4167.179199,4491.281738,4355.897461,4164.102539,4163.589844,4391.794922,4300,4512.307617,4171.281738,4561.538574,4213.846191,4170.256348,4167.179199,0,2050,1782,0,0,1996,258,4,4,0,0,0,0,4,4,4,0,0,0,4,4,0,0
68,0,4159.487305,4166.666504,4428.205078,4296.410156,4169.230469,4168.205078,4349.743652,4269.743652,4462.563965,4170.769043,4498.461426,4181.538574,4169.743652,4167.692383,0,2055,1809,0,0,1996,265,4,4,0,0,0,0,4,4,4,0,0,0,4,4,0,0
69,0,4159.487305,4168.717773,4366.153809,4243.589844,4168.717773,4172.307617,4311.794922,4243.589844,4412.820313,4171.281738,4412.307617,4141.538574,4168.717773,4169.230469,0,2063,1864,0,0,1996,273,4,4,0,0,0,0,4,4,4,0,0,0,4,4,0,0
70,0,4159.487305,4169.230469,4327.179199,4216.922852,4167.692383,4166.153809,4288.205078,4228.205078,4366.666504,4170.769043,4359.487305,4113.846191,4170.769043,4169.230469,506,2067,1889,0,0,1996,281,4,4,0,0,0,0,4,4,4,0,0,0,4,4,0,0
71,0,4160,4167.179199,4288.717773,4184.615234,4168.717773,4162.05127,4266.666504,4211.281738,4320,4171.281738,4324.615234,4091.794678,4170.769043,4170.256348,471,2070,1914,0,0,1996,289,4,4,0,0,0,0,4,4,4,0,0,0,4,4,0,0
72,0,4162.05127,4167.692383,4226.666504,4127.692383,4169.230469,4169.743652,4230.769043,4182.563965,4270.256348,4170.769043,4253.333008,4051.794678,4169.743652,4170.769043,767,2076,1961,0,0,1996,297,4,4,0,0,0,0,4,4,4,0,0,0,4,4,0,0
73,0,4161.538574,4168.717773,4175.384277,4090.256348,4167.692383,4172.307617,4200,4162.563965,4237.436035,4171.281738,4188.205078,4016.410156,4170.256348,4170.769043,0,2079,1985,0,0,1996,305,4,4,0,0,0,0,4,4,4,0,0,0,4,4,0,0
74,0,4163.07666,4167.692383,4159.487305,4080,4164.102539,4167.692383,4193.846191,4162.563965,4222.05127,4176.410156,4171.281738,4003.5896,4170.769043,4171.794922,0,2081,2032,0,0,1996,313,4,4,0,0,0,0,4,4,4,0,0,0,4,4,0,0
75,0,4163.589844,4167.179199,4153.333008,4067.692139,4163.07666,4167.179199,4195.897461,4165.641113,4211.794922,4176.922852,4161.025391,3996.410156,4169.743652,4174.358887,0,2082,2056,0,0,1996,321,4,4,0,0,0,0,4,4,4,0,0,0,4,4,0,0
76,0,4161.025391,4168.717773,4140.512695,4059.487061,4168.717773,4170.256348,4198.974121,4166.666504,4206.153809,4170.256348,4148.717773,3989.230713,4169.743652,4174.871582,844,2083,2105,0,0,1996,328,4,4,0,0,0,0,4,4,4,0,0,0,4,4,0,0
77,0,4164.615234,4169.230469,4147.179199,4077.94873,4170.769043,4168.205078,4218.974121,4178.461426,4217.436035,4168.205078,4164.615234,3997.94873,4171.281738,4173.846191,516,2082,2132,0,0,1996,336,4,4,0,0,0,0,4,4,4,0,0,0,4,4,0,0
78,0,4166.666504,4169.230469,4160.512695,4093.845947,4168.205078,4167.692383,4236.410156,4192.307617,4230.769043,4170.256348,4171.281738,4007.179443,4170.256348,4176.922852,0,2075,2187,0,0,1996,344,4,4,0,0,0,0,4,4,4,0,0,0,4,4,0,0
79,0,4166.666504,4171.281738,4158.461426,4094.358887,4168.717773,4170.769043,4237.436035,4197.94873,4230.769043,4169.230469,4163.589844,4006.666504,4169.230469,4175.384277,0,2070,2211,0,0,1996,352,4,4,0,0,0,0,4,4,4,0,0,0,4,4,0,0
80,0,4166.666504,4169.743652,4160.512695,4101.538574,4168.717773,4171.281738,4238.461426,4199.487305,4230.256348,4168.717773,4177.94873,4014.358887,4169.743652,4172.820313,844,2065,2234,0,0,1996,359,4,4,0,0,0,0,4,4,4,0,0,0,4,4,0,0
81,0,4168.717773,4170.769043,4169.743652,4102.05127,4168.205078,4169.743652,4242.563965,4198.461426,4232.820313,4170.769043,4186.666504,4026.153809,4169.743652,4173.333008,516,2054,2275,0,0,1996,368,4,4,0,0,0,0,4,4,4,0,0,0,4,4,0,0
82,0,4168.717773,4173.846191,4172.307617,4093.845947,4169.230469,4169.743652,4242.563965,4200.512695,4227.692383,4169.743652,4172.820313,4031.281982,4170.769043,4174.871582,0,2047,2298,0,0,1996,376,4,4,0,0,0,0,4,4,4,0,0,0,4,4,0,0
83,0,4169.230469,4174.871582,4169.743652,4097.94873,4170.769043,4171.281738,4235.897461,4194.358887,4211.794922,4168.717773,4163.589844,4033.333252,4170.256348,4172.820313,0,2038,2348,0,0,1996,383,4,4,0,0,0,0,4,4,4,0,0,0,4,4,0,0
84,0,4172.307617,4172.307617,4170.256348,4108.717773,4171.281738,4170.256348,4232.820313,4184.615234,4202.563965,4169.743652,4163.589844,4039.487061,4170.256348,4172.307617,844,2031,2375,0,0,1996,391,4,4,0,0,0,0,4,4,4,0,0,0,4,4,0,0
85,0,4176.922852,4172.820313,4191.794922,4120.512695,4171.794922,4170.769043,4249.230469,4201.025391,4227.179199,4169.230469,4179.487305,4058.974365,4172.820313,4176.922852,516,2012,2431,0,0,1996,399,4,4,0,0,0,0,4,4,4,0,0,0,4,4,0,0
86,0,4175.897461,4174.358887,4242.05127,4152.307617,4168.205078,4172.307617,4279.487305,4236.922852,4273.333008,4169.230469,4224.615234,4098.461426,4172.820313,4179.487305,0,2003,2454,0,0,1996,408,4,4,0,0,0,0,4,4,4,0,0,0,4,4,0,0
87,0,4170.769043,4174.358887,4282.05127,4186.153809,4168.717773,4173.333008,4301.025391,4262.563965,4306.666504,4169.230469,4269.743652,4133.333008,4168.717773,4176.410156,0,1978,2486,0,0,1996,416,4,4,0,0,0,0,4,4,4,0,0,0,4,4,0,0
88,0,4170.256348,4174.358887,4276.922852,4183.589844,4174.358887,4172.307617,4301.538574,4265.641113,4309.230469,4169.230469,4271.281738,4142.05127,4169.743652,4175.897461,844,1965,2492,0,0,1996,424,4,4,0,0,0,0,4,4,4,0,0,0,4,4,0,0
89,0,4176.410156,4173.846191,4263.589844,4173.333008,4174.358887,4172.307617,4287.692383,4250.256348,4291.281738,4169.743652,4248.717773,4144.102539,4174.358887,4175.897461,516,1933,2489,0,0,1996,432,4,4,0,0,0,0,4,4,4,0,0,0,4,4,0,0
90,0,4178.461426,4172.307617,4266.153809,4177.94873,4171.281738,4171.794922,4277.94873,4245.641113,4275.384277,4169.230469,4247.692383,4158.461426,4171.281738,4176.922852,0,1920,2480,0,0,1996,439,4,4,0,0,0,0,4,4,4,0,0,0,4,4,0,0
91,0,4177.436035,4171.794922,4271.281738,4184.615234,4173.846191,4170.256348,4289.230469,4270.769043,4274.871582,4168.717773,4260.512695,4171.794922,4172.820313,4174.871582,0,1906,2450,0,0,1996,447,4,4,0,0,0,0,4,4,4,0,0,0,4,4,0,0
92,0,4178.461426,4174.871582,4275.897461,4192.307617,4175.897461,4173.333008,4295.384277,4281.538574,4278.974121,4169.743652,4261.025391,4179.487305,4178.461426,4172.820313,844,1878,2428,0,0,1996,454,4,4,0,0,0,0,4,4,4,0,0,0,4,4,0,0
93,0,4178.974121,4177.436035,4280,4199.487305,4171.794922,4175.897461,4293.333008,4266.153809,4279.487305,4172.307617,4261.025391,4192.307617,4174.358887,4176.922852,516,1851,2370,0,0,1996,461,4,4,0,0,0,0,4,4,4,0,0,0,4,4,0,0
94,0,4178.974121,4176.410156,4260,4189.743652,4173.333008,4174.358887,4297.436035,4257.436035,4270.769043,4170.769043,4252.307617,4198.974121,4168.205078,4179.487305,0,1838,2334,0,0,1996,469,4,4,0,0,0,0,4,4,4,0,0,0,4,4,0,0
95,0,4179.487305,4175.384277,4240.512695,4185.12793,4176.410156,4174.358887,4304.615234,4257.94873,4256.410156,4169.230469,4251.281738,4208.205078,4170.256348,4175.897461,0,1826,2297,0,0,1996,478,4,4,0,0,0,0,4,4,4,0,0,0,4,4,0,0
96,0,4182.05127,4176.922852,4284.615234,4235.897461,4176.922852,4177.436035,4331.794922,4277.94873,4288.205078,4177.436035,4324.102539,4264.615234,4173.333008,4175.897461,844,1804,2220,0,0,1996,486,4,4,0,0,0,0,4,4,4,0,0,0,4,4,0,0
97,0,4182.563965,4176.410156,4345.12793,4300,4176.410156,4175.897461,4373.333008,4315.384277,4354.358887,4178.974121,4407.692383,4333.846191,4171.281738,4178.461426,516,1791,2185,0,0,1996,494,4,4,0,0,0,0,4,4,4,0,0,0,4,4,0,0
98,0,4180.512695,4175.384277,4367.692383,4330.256348,4177.436035,4174.358887,4396.410156,4338.974121,4391.281738,4172.820313,4426.666504,4366.153809,4172.307617,4176.410156,0,1760,2134,0,0,1996,503,4,4,0,0,0,0,4,4,4,0,0,0,4,4,0,0
99,0,4178.461426,4175.897461,4402.563965,4365.12793,4175.384277,4177.436035,4414.871582,4357.94873,4423.07666,4174.358887,4470.256348,4404.615234,4173.846191,4176.410156,0,1737,2118,0,0,1996,510,4,4,0,0,0,0,4,4,4,0,0,0,4,4,0,0
100,0,4182.563965,4177.94873,4437.94873,4397.94873,4175.384277,4180,4434.871582,4373.846191,4450.769043,4176.410156,4531.281738,4448.205078,4173.333008,4178.461426,844,1688,2091,0,0,1996,517,4,4,0,0,0,0,4,4,4,0,0,0,4,4,0,0
101,0,4185.641113,4178.461426,4434.358887,4402.05127,4178.461426,4177.94873,4436.922852,4371.794922,4448.205078,4170.769043,4525.12793,4456.410156,4172.307617,4175.897461,516,1664,2080,0,0,1996,525,4,4,0,0,0,0,4,4,4,0,0,0,4,4,0,0
102,0,4183.07666,4177.94873,4450.769043,4418.974121,4178.974121,4177.436035,4445.12793,4382.563965,4473.333008,4169.230469,4523.589844,4462.05127,4171.281738,4174.358887,0,1618,2048,0,0,1996,533,4,4,0,0,0,0,4,4,4,0,0,0,4,4,0,0
103,0,4182.563965,4178.461426,4494.358887,4452.307617,4177.436035,4177.94873,4452.820313,4401.025391,4513.333008,4173.846191,4565.12793,4480,4171.281738,4174.871582,0,1594,2029,0,0,1996,541,4,4,0,0,0,0,4,4,4,0,0,0,4,4,0,0
104,0,4184.102539,4178.461426,4487.179199,4446.666504,4178.461426,4175.897461,4428.717773,4378.461426,4486.153809,4170.769043,4554.358887,4461.025391,4169.230469,4173.846191,844,1571,2012,0,0,1996,549,4,4,0,0,0,0,4,4,4,0,0,0,4,4,0,0
105,0,4180.512695,4177.436035,4464.615234,4424.102539,4178.461426,4174.358887,4415.384277,4360,4462.05127,4167.692383,4529.743652,4430.769043,4169.230469,4172.307617,516,1524,1975,0,0,1996,557,4,4,0,0,0,0,4,4,4,0,0,0,4,4,0,0
106,0,4177.94873,4175.384277,4491.281738,4431.281738,4176.410156,4175.384277,4433.333008,4385.12793,4510.256348,4173.846191,4564.615234,4435.897461,4171.281738,4173.846191,0,1499,1956,0,0,1996,566,4,4,0,0,0,0,4,4,4,0,0,0,4,4,0,0
107,0,4180.512695,4174.871582,4518.461426,4438.461426,4176.410156,4176.410156,4434.358887,4392.820313,4533.333008,4179.487305,4586.666504,4436.410156,4171.281738,4175.384277,0,1449,1931,0,0,1996,574,4,4,0,0,0,0,4,4,4,0,0,0,4,4,0,0
108,0,4181.538574,4174.871582,4508.717773,4425.12793,4176.922852,4177.436035,4420,4369.230469,4504.102539,4174.358887,4565.641113,4409.743652,4170.769043,4175.384277,844,1425,1923,0,0,1996,581,4,4,0,0,0,0,4,4,4,0,0,0,4,4,0,0
109,0,4178.974121,4171.794922,4503.589844,4417.94873,4176.410156,4178.461426,4426.666504,4369.230469,4504.102539,4166.666504,4564.615234,4388.205078,4171.281738,4173.333008,516,1379,1907,0,0,1996,589,4,4,0,0,0,0,4,4,4,0,0,0,4,4,0,0
110,0,4177.94873,4171.794922,4518.461426,4421.538574,4175.897461,4177.436035,4442.05127,4386.153809,4529.743652,4169.743652,4590.769043,4384.102539,4170.256348,4173.333008,0,1357,1901,0,0,1996,596,4,4,0,0,0,0,4,4,4,0,0,0,4,4,0,0
111,0,4177.94873,4171.281738,4523.07666,4422.563965,4176.922852,4176.922852,4441.025391,4381.025391,4527.692383,4171.794922,4600.512695,4376.922852,4168.717773,4173.846191,0,1320,1891,0,0,1996,604,4,4,0,0,0,0,4,4,4,0,0,0,4,4,0,0
112,0,4177.94873,4171.281738,4508.205078,4411.794922,4176.410156,4178.461426,4425.12793,4360,4506.153809,4169.230469,4581.538574,4355.384277,4169.743652,4170.256348,844,1304,1888,0,0,1996,612,4,4,0,0,0,0,4,4,4,0,0,0,4,4,0,0
113,0,4176.922852,4170.769043,4488.205078,4397.94873,4174.358887,4177.436035,4408.717773,4345.12793,4489.743652,4170.769043,4558.974121,4332.307617,4169.743652,4170.769043,516,1280,1881,0,0,1996,620,4,4,0,0,0,0,4,4,4,0,0,0,4,4,0,0
114,0,4176.410156,4170.769043,4477.435547,4387.179199,4173.333008,4173.333008,4394.358887,4340.512695,4484.615234,4172.307617,4561.025391,4323.07666,4169.230469,4171.794922,0,1271,1877,0,0,1996,628,4,4,0,0,0,0,4,4,4,0,0,0,4,4,0,0
115,0,4176.922852,4168.717773,4480,4377.94873,4172.307617,4172.820313,4382.05127,4340,4494.871582,4172.307617,4571.281738,4324.102539,4169.230469,4168.205078,0,1262,1873,0,0,1996,636,4,4,0,0,0,0,4,4,4,0,0,0,4,4,0,0
116,0,4176.410156,4169.743652,4479.487305,4366.666504,4174.358887,4174.871582,4373.333008,4331.794922,4495.384277,4172.307617,4563.589844,4316.410156,4168.717773,4168.717773,844,1253,1869,0,0,1996,643,4,4,0,0,0,0,4,4,4,0,0,0,4,4,0,0
117,0,4177.94873,4169.743652,4464.615234,4353.333008,4172.307617,4176.410156,4363.07666,4322.05127,4474.871582,4171.794922,4551.281738,4301.025391,4168.717773,4173.846191,516,1255,1868,0,0,1996,651,4,4,0,0,0,0,4,4,4,0,0,0,4,4,0,0
118,0,4177.94873,4168.205078,4443.07666,4333.333008,4167.692383,4177.436035,4350.256348,4327.692383,4458.461426,4171.281738,4531.281738,4285.12793,4169.743652,4172.307617,0,1270,1868,0,0,1996,660,4,4,0,0,0,0,4,4,4,0,0,0,4,4,0,0
119,0,4175.897461,4168.717773,4425.12793,4312.307617,4169.743652,4177.94873,4337.94873,4328.205078,4444.615234,4171.281738,4494.358887,4268.205078,4168.717773,4168.205078,0,1283,1872,0,0,1996,668,4,4,0,0,0,0,4,4,4,0,0,0,4,4,0,0
120,0,4174.358887,4170.256348,4415.897461,4311.281738,4172.307617,4176.410156,4328.717773,4314.358887,4426.153809,4171.281738,4478.461426,4256.410156,4168.717773,4168.717773,844,1325,1879,0,0,1996,675,4,4,0,0,0,0,4,4,4,0,0,0,4,4,0,0
121,0,4175.384277,4170.256348,4414.358887,4318.974121,4170.769043,4176.410156,4322.05127,4308.205078,4420.512695,4170.769043,4483.07666,4252.307617,4169.743652,4169.230469,516,1350,1885,0,0,1996,684,4,4,0,0,0,0,4,4,4,0,0,0,4,4,0,0
122,0,4175.384277,4168.717773,4396.922852,4304.615234,4173.846191,4180,4309.743652,4305.12793,4414.871582,4171.794922,4463.07666,4238.461426,4169.743652,4167.692383,0,1416,1898,0,0,1996,692,4,4,0,0,0,0,4,4,4,0,0,0,4,4,0,0
123,0,4176.410156,4170.769043,4348.717773,4269.230469,4178.974121,4181.025391,4275.384277,4277.94873,4371.281738,4172.820313,4408.717773,4202.563965,4170.256348,4167.179199,0,1454,1905,0,0,1996,699,4,4,0,0,0,0,4,4,4,0,0,0,4,4,0,0
124,0,4177.94873,4171.281738,4282.563965,4225.641113,4176.410156,4177.436035,4224.615234,4233.846191,4300,4171.794922,4331.281738,4158.461426,4170.769043,4169.230469,844,1544,1918,0,0,1996,707,4,4,0,0,0,0,4,4,4,0,0,0,4,4,0,0
125,0,4178.461426,4164.102539,4237.94873,4193.333008,4173.333008,4176.410156,4192.820313,4204.615234,4249.743652,4170.769043,4269.743652,4127.692383,4169.743652,4171.281738,516,1594,1925,0,0,1996,715,4,4,0,0,0,0,4,4,4,0,0,0,4,4,0,0
126,0,4176.922852,4163.07666,4187.179199,4153.333008,4175.384277,4176.922852,4159.487305,4176.922852,4203.589844,4170.769043,4211.794922,4093.845947,4170.256348,4170.256348,0,1704,1935,0,0,1996,723,4,4,0,0,0,0,4,4,4,0,0,0,4,4,0,0
127,0,4174.358887,4166.666504,4057.94873,4051.794678,4176.922852,4174.871582,4088.717773,4112.820313,4100,4170.769043,4086.153809,4010.256348,4169.743652,4168.717773,0,1764,1938,0,0,1996,730,4,4,0,0,0,0,4,4,4,0,0,0,4,4,0,0
128,0,4172.820313,4164.102539,3930.256348,3953.845947,4175.897461,4173.846191,4029.230713,4054.871582,3984.102539,4169.743652,3962.563965,3930.769043,4169.230469,4170.769043,844,1825,1941,0,0,1996,738,4,4,0,0,0,0,4,4,4,0,0,0,4,4,0,0
0,0,4172.307617,4163.589844,3882.563965,3927.179443,4173.333008,4175.384277,4003.076904,4042.563965,3935.384521,4170.769043,3911.794678,3901.025635,4169.230469,4169.743652,836,1957,1949,0,0,1996,746,4,4,0,0,0,0,4,4,4,0,0,0,4,4,0,0
1,0,4172.307617,4168.205078,3774.358887,3854.358887,4173.333008,4173.333008,3925.640869,3992.820313,3854.358887,4170.256348,3794.358887,3829.743408,4168.205078,4166.666504,684,2029,1954,0,0,1996,754,4,4,0,0,0,0,4,4,4,0,0,0,4,4,0,0
2,0,4170.769043,4168.205078,3585.128174,3709.743408,4175.384277,4171.794922,3821.53833,3897.94873,3695.384521,4168.205078,3597.435791,3710.256348,4167.692383,4170.256348,0,2174,1966,0,0,1996,763,4,4,0,0,0,0,4,4,4,0,0,0,4,4,0,0
3,0,4166.153809,4166.666504,3525.640869,3667.179443,4174.358887,4172.307617,3812.307617,3878.974365,3631.794678,4175.897461,3539.487061,3680.512695,4169.230469,4176.922852,0,2247,1974,0,0,1996,771,4,4,0,0,0,0,4,4,4,0,0,0,4,4,0,0
4,0,4163.589844,4168.717773,3585.128174,3723.5896,4173.846191,4172.820313,3856.923096,3922.05127,3678.974365,4181.025391,3603.5896,3722.05127,4169.743652,4173.333008,0,2395,1989,0,0,1996,779,4,4,0,0,0,0,4,4,4,0,0,0,4,4,0,0
5,0,4166.153809,4168.717773,3526.153809,3685.640869,4171.794922,4171.794922,3822.563965,3886.666504,3638.461426,4171.794922,3543.076904,3682.563965,4169.743652,4166.153809,0,2463,1998,0,0,1996,787,4,4,0,0,0,0,4,4,4,0,0,0,4,4,0,0
6,0,4163.589844,4168.717773,3387.179443,3577.435791,4169.743652,4170.769043,3748.717773,3806.666504,3526.666504,4166.153809,3392.820313,3596.923096,4171.281738,4169.230469,511,2590,2012,0,0,1996,794,4,4,0,0,0,0,4,4,4,0,0,0,4,4,0,0
7,0,4160.512695,4169.743652,3405.128174,3593.333252,4169.743652,4171.281738,3773.333252,3821.53833,3540.512695,4174.871582,3403.076904,3615.384521,4171.281738,4174.871582,474,2647,2018,0,0,1996,801,4,4,0,0,0,0,4,4,4,0,0,0,4,4,0,0
8,0,4162.563965,4167.179199,3511.794678,3684.615234,4169.230469,4168.717773,3846.666504,3885.128174,3628.717773,4174.358887,3514.358887,3684.102539,4170.256348,4174.871582,769,2751,2028,0,0,1996,809,4,4,0,0,0,0,4,4,4,0,0,0,4,4,0,0
9,0,4164.102539,4168.717773,3499.487061,3668.205078,4168.205078,4164.615234,3846.153809,3877.94873,3617.94873,4166.666504,3513.845947,3677.94873,4169.743652,4171.281738,0,2800,2033,0,0,1996,817,4,4,0,0,0,0,4,4,4,0,0,0,4,4,0,0
10,0,4159.487305,4172.820313,3475.897461,3633.333252,4167.179199,4162.05127,3840.512695,3864.615234,3595.897461,4175.384277,3492.820313,3668.717773,4172.307617,4173.333008,0,2842,2037,0,0,1996,825,4,4,0,0,0,0,4,4,4,0,0,0,4,4,0,0
11,0,4158.461426,4173.333008,3568.717773,3705.128174,4166.666504,4164.102539,3903.5896,3919.487061,3671.281982,4186.153809,3570.256348,3732.307617,4171.281738,4175.897461,0,2921,2046,0,0,1996,832,4,4,0,0,0,0,4,4,4,0,0,0,4,4,0,0
12,0,4157.94873,4171.281738,3645.128174,3771.281982,4164.102539,4162.05127,3951.794678,3962.563965,3738.974365,4180,3633.333252,3780,4170.256348,4173.846191,858,2956,2052,0,0,1996,840,4,4,0,0,0,0,4,4,4,0,0,0,4,4,0,0
13,0,4155.384277,4170.769043,3654.871826,3773.845947,4163.589844,4159.487305,3956.410156,3958.974365,3740,4176.410156,3643.076904,3781.025635,4176.922852,4170.256348,523,3014,2059,0,0,1996,849,4,4,0,0,0,0,4,4,4,0,0,0,4,4,0,0
14,0,4154.871582,4169.230469,3696.923096,3801.53833,4163.589844,4160.512695,3981.025635,3974.358887,3764.102539,4180.512695,3677.435791,3806.153809,4178.461426,4172.820313,0,3037,2063,0,0,1996,856,4,4,0,0,0,0,4,4,4,0,0,0,4,4,0,0
15,0,4157.436035,4168.717773,3752.307617,3845.128174,4163.589844,4161.538574,4012.820313,4005.128174,3816.410156,4175.384277,3721.53833,3842.05127,4175.897461,4173.846191,0,3079,2067,0,0,1996,864,4,4,0,0,0,0,4,4,4,0,0,0,4,4,0,0
16,0,4153.846191,4170.769043,3798.974365,3882.05127,4163.589844,4162.563965,4036.410156,4029.230713,3861.025635,4170.256348,3769.230713,3871.794678,4177.94873,4172.820313,0,3093,2067,0,0,1996,872,4,4,0,0,0,0,4,4,4,0,0,0,4,4,0,0
